# Theta[deg]   da/a_dipole[ppm]  e(da/a_dipole)[ppm]
2.14389 10.1929 2.09935
2.31117 10.1917 2.0992
3.11194 10.185 2.09866
3.24643 10.1836 2.09848
3.36165 10.1824 2.09802
3.67887 10.179 2.09758
4.16861 10.173 2.09706
4.46545 10.169 2.09653
5.04318 10.1605 2.09523
5.3989 10.1548 2.09449
5.7962 10.1479 2.0937
6.15295 10.1412 2.09282
6.85205 10.1271 2.09099
7.03599 10.1232 2.09338
7.08071 10.1222 2.09326
7.22042 10.1191 2.08998
7.42864 10.1144 2.09231
7.55491 10.1115 2.09196
7.63488 10.1096 2.08862
8.01508 10.1004 2.0874
8.04791 10.0995 2.09132
8.1074 10.0981 2.09111
8.1949 10.0958 2.09008
8.38467 10.091 2.08949
8.56824 10.0862 2.08946
8.70536 10.0825 2.08536
8.7347 10.0817 2.08884
9.07856 10.0722 2.08407
9.24015 10.0676 2.08669
9.47473 10.0609 2.08587
9.55979 10.0584 2.08185
9.57304 10.058 2.08554
9.82011 10.0506 2.08451
9.95034 10.0466 2.0803
10.4784 10.0299 2.08217
10.5755 10.0267 2.07837
10.7431 10.0212 2.08113
10.9271 10.0151 2.07961
10.9503 10.0143 2.07681
11.229 10.0047 2.07818
11.5235 9.9944 2.07345
11.8457 9.98278 2.07656
11.9188 9.9801 2.07158
12.0171 9.97647 2.08087
12.0384 9.97568 2.08078
12.1306 9.97225 2.07532
12.2078 9.96935 2.08006
12.2706 9.96698 2.0798
12.4502 9.96014 2.07009
12.5145 9.95766 2.07171
12.6001 9.95435 2.07836
12.7013 9.9504 2.07792
12.825 9.94554 2.06828
12.8523 9.94446 2.0699
13.0327 9.93726 2.07749
13.0734 9.93563 2.07725
13.175 9.93152 2.07578
13.2986 9.92648 2.06992
13.3097 9.92603 2.07516
13.3945 9.92254 2.07537
13.5045 9.91799 2.06351
13.5129 9.91764 2.07466
13.5967 9.91414 2.06847
13.9016 9.90124 2.06134
13.9078 9.90098 2.07234
14.071 9.89395 2.07156
14.1271 9.89152 2.07091
14.2538 9.88599 2.06192
14.3134 9.88337 2.06974
14.3228 9.88296 2.06058
14.6148 9.86997 2.05974
14.6967 9.86628 2.05854
14.7727 9.86284 2.06808
14.8078 9.86124 2.06229
14.9593 9.85432 2.06712
15.1145 9.84715 2.06065
15.175 9.84433 2.06415
15.4169 9.83297 2.06252
15.4912 9.82945 2.0521
15.7451 9.81728 2.06301
15.8885 9.81032 2.04965
15.9506 9.80729 2.0619
16.0917 9.80036 2.05032
16.1892 9.79553 2.04994
16.3532 9.78735 2.05373
16.4678 9.78159 2.04779
16.4758 9.78118 2.05515
16.5614 9.77685 2.04768
16.6653 9.77156 2.05192
16.7611 9.76666 2.05309
16.8034 9.76448 2.05719
17.0092 9.75383 2.0621
17.0207 9.75323 2.06204
17.0236 9.75308 2.05593
17.1124 9.74844 2.06153
17.1466 9.74664 2.06134
17.3278 9.73708 2.06033
17.384 9.7341 2.06002
17.4766 9.72916 2.03934
17.6507 9.71981 2.05851
17.7275 9.71566 2.05808
17.8731 9.70773 2.03663
17.9209 9.70512 2.04433
17.9288 9.70468 2.05065
17.9716 9.70234 2.044
17.9934 9.70114 2.03703
18.0258 9.69936 2.05746
18.046 9.69824 2.03825
18.0579 9.69758 2.0572
18.074 9.6967 2.05609
18.1606 9.69191 2.04927
18.17 9.69138 2.05553
18.2361 9.6877 2.04235
18.2897 9.68472 2.04152
18.3131 9.68341 2.05509
18.3793 9.6797 2.03418
18.4079 9.67809 2.05431
18.416 9.67764 2.03579
18.5894 9.66784 2.05308
18.7027 9.66139 2.05241
18.9047 9.6498 2.05011
19.0572 9.64097 2.04881
19.1059 9.63813 2.04346
19.1876 9.63336 2.0495
19.3164 9.6258 2.04872
19.3464 9.62404 2.04195
19.4559 9.61756 2.02533
19.5007 9.6149 2.03415
19.6141 9.60814 2.0308
19.7719 9.59868 2.04257
19.8175 9.59593 2.03203
19.8507 9.59392 2.02239
19.8592 9.59341 2.04538
19.8907 9.5915 2.02561
19.9361 9.58875 2.02216
19.9568 9.58749 2.02793
19.9752 9.58637 2.04076
20.0014 9.58478 2.0445
20.258 9.56906 2.02298
20.3218 9.56512 2.03567
20.328 9.56473 2.01901
20.5687 9.54977 2.03404
20.5944 9.54816 2.04076
20.7483 9.53849 2.03978
20.8783 9.53027 2.03253
21.0852 9.51708 2.02329
21.1249 9.51453 2.03023
21.3657 9.49899 2.01567
21.3842 9.4978 2.03566
21.402 9.49664 2.02104
21.4255 9.49511 2.01021
21.5479 9.48713 2.03458
21.5659 9.48595 2.02733
21.721 9.47577 2.01214
21.7265 9.47541 2.01243
21.8173 9.46941 2.0256
21.818 9.46937 2.00706
21.9038 9.46368 2.00586
22.0048 9.45695 2.03746
22.0108 9.45655 2.03742
22.059 9.45334 2.03711
22.077 9.45213 2.037
22.0851 9.45159 2.00936
22.1726 9.44572 2.03637
22.1856 9.44485 2.02009
22.2024 9.44372 2.03618
22.2199 9.44254 2.03012
22.2993 9.43719 2.00243
22.3445 9.43413 2.03525
22.3857 9.43134 2.03498
22.3918 9.43093 2.02896
22.4679 9.42576 2.01733
22.5725 9.41862 2.03376
22.6246 9.41506 2.03341
22.6682 9.41207 2.01183
22.8294 9.40097 2.01852
22.8542 9.39926 2.03189
22.9167 9.39493 2.03148
22.9842 9.39025 2.00947
23.0218 9.38763 2.03167
23.049 9.38574 2.03139
23.0838 9.38331 2.0167
23.0935 9.38264 2.02418
23.1865 9.37613 2.02968
23.1974 9.37536 1.99876
23.2587 9.37106 2.0292
23.2656 9.37058 2.02908
23.2721 9.37012 2.02295
23.3462 9.36489 2.02821
23.3823 9.36235 1.99411
23.5348 9.35154 1.99796
23.566 9.34932 2.02713
23.5713 9.34894 1.99518
23.6472 9.34353 2.02658
23.6574 9.3428 2.00537
23.7715 9.33464 2.02362
23.7719 9.3346 1.99078
23.8852 9.32645 1.98827
23.8955 9.32572 1.99504
23.9027 9.3252 2.02219
23.9686 9.32043 2.00216
23.989 9.31896 2.02425
23.9977 9.31833 2.01789
24.0784 9.31248 2.02364
24.105 9.31054 2.00929
24.1817 9.30496 2.01659
24.2451 9.30033 1.99986
24.2824 9.2976 1.98461
24.361 9.29184 2.0074
24.4516 9.28518 2.02108
24.5221 9.27997 2.01535
24.5485 9.27802 2.02041
24.5594 9.27722 1.99742
24.6996 9.26681 2.01337
24.926 9.2499 2.01128
24.9499 9.2481 2.01762
25.0535 9.24031 2.0169
25.0872 9.23777 1.98022
25.114 9.23574 2.00992
25.2617 9.22456 1.9885
25.3238 9.21983 1.97718
25.3303 9.21934 1.98318
25.3865 9.21505 1.99973
25.4705 9.20863 1.97634
25.4799 9.20791 2.0139
25.4942 9.20682 2.00435
25.5893 9.19951 2.01313
25.5959 9.19901 1.98488
25.643 9.19538 1.99778
25.687 9.19199 1.98016
25.71 9.19021 1.9737
25.7129 9.18999 2.00183
25.8118 9.18234 1.98749
25.8719 9.17767 1.96956
25.8724 9.17764 2.00441
26.0376 9.16477 2.00995
26.0633 9.16275 2.003
26.1236 9.15803 1.98498
26.1521 9.1558 2.00913
26.2693 9.14658 1.9657
26.6191 9.11885 2.00579
26.6613 9.11548 1.99072
26.6685 9.11491 1.98989
26.7379 9.10936 2.00493
26.8314 9.10185 1.99731
26.9157 9.09507 1.98769
26.9245 9.09436 1.9879
26.9709 9.09062 1.96965
27.002 9.08811 2.00751
27.0045 9.0879 2.00749
27.0179 9.08682 1.96024
27.0243 9.0863 1.99587
27.0244 9.08629 2.00735
27.0319 9.08569 2.0073
27.0717 9.08247 2.00702
27.0841 9.08146 2.00693
27.1053 9.07974 1.96794
27.1434 9.07665 2.00651
27.1606 9.07525 2.00639
27.2206 9.07037 2.00144
27.2391 9.06887 2.00583
27.2475 9.06818 1.95957
27.261 9.06708 2.00567
27.3233 9.062 1.96565
27.343 9.06038 2.00055
27.3581 9.05915 2.00498
27.3649 9.05859 1.97481
27.3846 9.05698 2.00479
27.4078 9.05508 1.95609
27.4577 9.05098 1.96484
27.4997 9.04754 2.00397
27.5306 9.04499 2.00375
27.6299 9.03681 1.95598
27.6629 9.03409 2.0028
27.6736 9.0332 1.97225
27.698 9.03118 2.00255
27.7982 9.02287 1.99005
27.8385 9.01953 1.99693
27.8467 9.01885 2.00148
27.8574 9.01796 1.94991
27.8858 9.01559 2.0012
27.9464 9.01054 1.97986
27.9638 9.00909 1.99601
27.9921 9.00672 1.98858
27.9965 9.00636 1.97459
28.0192 9.00446 2.0007
28.0431 9.00246 2.00039
28.0499 9.00189 2.00002
28.0928 8.9983 1.99971
28.2012 8.9892 1.97784
28.2341 8.98643 1.9979
28.2538 8.98477 1.94588
28.2714 8.98328 1.99843
28.2814 8.98244 1.97107
28.3053 8.98042 1.99697
28.3178 8.97937 1.99809
28.4693 8.96654 1.99229
28.5097 8.96311 1.99671
28.5593 8.95889 1.99635
28.5968 8.9557 1.99135
28.6819 8.94843 1.99202
28.7623 8.94156 1.94899
28.7635 8.94145 1.99487
28.7684 8.94104 1.98266
28.7985 8.93845 1.99048
28.816 8.93695 1.99449
28.8581 8.93334 1.95236
28.9012 8.92963 1.96193
28.9625 8.92436 1.98117
28.9765 8.92315 1.939
29.0314 8.91841 1.99292
29.0865 8.91364 1.99252
29.1098 8.91163 1.98755
29.1287 8.90999 1.94466
29.1512 8.90804 1.94144
29.2059 8.9033 1.94921
29.2063 8.90326 1.95933
29.2162 8.90239 1.96971
29.2387 8.90044 1.98659
29.3118 8.89408 1.99088
29.3512 8.89064 1.9831
29.3693 8.88906 1.99046
29.3706 8.88895 1.93463
29.4689 8.88035 1.96767
29.4739 8.87991 1.95611
29.5103 8.87673 1.98096
29.5294 8.87505 1.93777
29.6033 8.86856 1.98875
29.6628 8.86332 1.98832
29.738 8.85669 1.97519
29.7567 8.85504 1.98272
29.7843 8.85259 1.95215
29.8361 8.84801 1.92951
29.8865 8.84354 1.98175
29.9044 8.84196 1.98655
29.9315 8.83955 1.97369
29.9656 8.83652 1.9861
30.2134 8.8144 1.98429
30.2257 8.8133 1.97124
30.2307 8.81285 1.92535
30.2761 8.80878 1.98383
30.407 8.79701 1.97785
30.4182 8.796 1.94894
30.4236 8.79551 1.96852
30.4744 8.79093 1.9595
30.529 8.786 1.98197
30.5372 8.78525 1.97687
30.5868 8.78076 1.93658
30.5927 8.78023 1.9815
30.617 8.77803 1.92674
30.7033 8.7702 1.96769
30.719 8.76876 1.94634
30.7243 8.76829 1.95746
30.8495 8.75687 1.97961
30.8955 8.75267 1.96619
30.9141 8.75097 1.97914
30.9295 8.74956 1.93341
30.9525 8.74745 1.91673
30.9942 8.74364 1.92212
31.0328 8.74009 1.92297
31.058 8.73779 1.97295
31.0699 8.73669 1.93546
31.1736 8.72715 1.97722
31.188 8.72582 1.97197
31.2387 8.72114 1.97674
31.2864 8.71674 1.95655
31.3491 8.71094 1.91217
31.4014 8.70608 1.93109
31.4063 8.70563 1.91925
31.4997 8.69695 1.97482
31.5191 8.69515 1.95328
31.5651 8.69087 1.97434
31.6609 8.68193 1.9602
31.7069 8.67763 1.96806
31.7175 8.67664 1.94931
31.8039 8.66854 1.90855
31.8265 8.66642 1.97241
31.8362 8.66551 1.96708
31.8513 8.66409 1.95871
31.8918 8.66028 1.97192
31.9132 8.65827 1.93594
31.9641 8.65348 1.94728
32 8.65009 1.97294
32 8.65009 1.97294
32 8.65009 1.97294
32 8.65009 1.97294
32 8.65009 1.97294
32 8.65009 1.97294
32 8.65009 1.97294
32 8.65009 1.97294
32 8.65009 1.97294
32 8.65009 1.97294
32 8.65009 1.97294
32 8.65009 1.97294
32 8.65009 1.97294
32 8.65009 1.97294
32 8.65009 1.97294
32 8.65009 1.97294
32 8.65009 1.97294
32 8.65009 1.97294
32 8.65009 1.97294
32 8.65009 1.97294
32 8.65009 1.97294
32 8.65009 1.97294
32 8.65009 1.97294
32 8.65009 1.97294
32 8.65009 1.97294
32 8.65009 1.97294
32 8.65009 1.97294
32 8.65009 1.97294
32 8.65009 1.97294
32 8.65009 1.97294
32 8.65009 1.97294
32 8.65009 1.97294
32 8.65009 1.97294
32 8.65009 1.97294
32 8.65009 1.97294
32 8.65009 1.97294
32 8.65009 1.97294
32 8.65009 1.97294
32 8.65009 1.97294
32 8.65009 1.97294
32 8.65009 1.97294
32 8.65009 1.97294
32 8.65009 1.97294
32 8.65009 1.97294
32 8.65009 1.97294
32 8.65009 1.97294
32 8.65009 1.97294
32 8.65009 1.97294
32 8.65009 1.97294
32 8.65009 1.97294
32 8.65009 1.97294
32 8.65009 1.97294
32 8.65009 1.97294
32 8.65009 1.97294
32 8.65009 1.97294
32 8.65009 1.97294
32 8.65009 1.97294
32 8.65009 1.97294
32 8.65009 1.97294
32 8.65009 1.97294
32 8.65009 1.97294
32 8.65009 1.97294
32 8.65009 1.97294
32 8.65009 1.97294
32 8.65009 1.97294
32 8.65009 1.97294
32 8.65009 1.97294
32 8.65009 1.97294
32 8.65009 1.97294
32 8.65009 1.97294
32 8.65009 1.97294
32 8.65009 1.97294
32 8.65009 1.97294
32 8.65009 1.97294
32 8.65009 1.97294
32 8.65009 1.97294
32 8.65009 1.97294
32 8.65009 1.97294
32 8.65009 1.97294
32 8.65009 1.97294
32 8.65009 1.97294
32 8.65009 1.97294
32 8.65009 1.97294
32 8.65009 1.97294
32 8.65009 1.97294
32 8.65009 1.97294
32 8.65009 1.97294
32 8.65009 1.97294
32 8.65009 1.97294
32 8.65009 1.97294
32 8.65009 1.97294
32 8.65009 1.97294
32 8.65009 1.97294
32 8.65009 1.97294
32 8.65009 1.97294
32 8.65009 1.97294
32.1525 8.63567 1.97
32.1957 8.63158 1.90431
32.2093 8.63029 1.93335
32.2175 8.62951 1.96952
32.2896 8.62266 1.92074
32.3513 8.61679 1.96319
32.4765 8.60484 1.96761
32.4794 8.60456 1.96222
32.5128 8.60137 1.93916
32.5197 8.60071 1.90311
32.5409 8.59868 1.96713
32.6079 8.59226 1.95277
32.6268 8.59044 1.91757
32.7635 8.5773 1.91286
32.7761 8.57608 1.93537
32.7957 8.57419 1.9513
32.797 8.57407 1.96524
32.8606 8.56793 1.96477
32.8902 8.56507 1.90431
32.9048 8.56366 1.89824
32.9375 8.5605 1.89363
32.9427 8.55999 1.9392
32.9888 8.55553 1.95837
33.0173 8.55276 1.96527
33.0389 8.55066 1.96494
33.1122 8.54354 1.90812
33.1129 8.54348 1.96291
33.1153 8.54325 1.95741
33.1754 8.5374 1.96245
33.1853 8.53643 1.93719
33.2114 8.53389 1.9623
33.2586 8.52928 1.90058
33.2758 8.5276 1.96131
33.3349 8.52182 1.88893
33.3837 8.51704 1.92304
33.4229 8.51321 1.96062
33.4841 8.5072 1.96017
33.5413 8.50158 1.94544
33.6169 8.49413 1.95605
33.6172 8.49411 1.95362
33.6747 8.48843 1.92047
33.7228 8.48368 1.95441
33.7259 8.48338 1.95839
33.7261 8.48335 1.94399
33.7415 8.48183 1.95268
33.7566 8.48033 1.88724
33.7855 8.47748 1.95795
33.8842 8.46769 1.91925
33.9645 8.45972 1.90495
34.0207 8.45412 1.95622
34.0786 8.44835 1.95579
34.1451 8.44171 1.88295
34.1472 8.4415 1.92923
34.1742 8.43881 1.91498
34.2257 8.43365 1.94658
34.2343 8.43279 1.94897
34.2959 8.42661 1.90182
34.3064 8.42556 1.95412
34.3561 8.42057 1.94805
34.3623 8.41995 1.95371
34.3709 8.41909 1.94431
34.3854 8.41762 1.92726
34.4574 8.41038 1.87836
34.4585 8.41027 1.93825
34.5363 8.40243 1.88852
34.5818 8.39783 1.9521
34.6356 8.39239 1.9517
34.6398 8.39197 1.93683
34.7214 8.3837 1.88565
34.8277 8.37291 1.91031
34.8381 8.37185 1.94442
34.8462 8.37103 1.95016
34.8482 8.37082 1.87329
34.8976 8.36579 1.94978
34.8989 8.36566 1.88347
34.9243 8.36307 1.86994
34.9571 8.35972 1.94353
35.0259 8.35271 1.93398
35.0843 8.34674 1.88193
35.0984 8.34529 1.94832
35.1131 8.34379 1.9078
35.1474 8.34027 1.94796
35.2076 8.33409 1.9311
35.3213 8.32241 1.86516
35.3285 8.32167 1.91948
35.3379 8.32071 1.94657
35.3571 8.31873 1.93122
35.3809 8.31627 1.89701
35.3841 8.31594 1.94623
35.4269 8.31153 1.94001
35.5344 8.30042 1.92984
35.5427 8.29956 1.93915
35.5618 8.29758 1.91756
35.5636 8.2974 1.94492
35.6071 8.2929 1.94461
35.6096 8.29263 1.88937
35.691 8.28418 1.86578
35.6936 8.28391 1.8923
35.775 8.27546 1.94339
35.8155 8.27124 1.9431
35.935 8.25877 1.88628
35.9713 8.25498 1.94197
35.9988 8.2521 1.93575
36.003 8.25165 1.91838
36.0087 8.25107 1.9417
36.0754 8.24408 1.86149
36.111 8.24034 1.93492
36.1519 8.23605 1.94066
36.1861 8.23246 1.94041
36.2183 8.22907 1.91492
36.2348 8.22734 1.9244
36.2428 8.22649 1.89786
36.3162 8.21876 1.93947
36.3471 8.2155 1.93925
36.3725 8.21282 1.8627
36.4076 8.20911 1.92306
36.4197 8.20784 1.85272
36.4638 8.20317 1.93841
36.4843 8.20101 1.90999
36.4913 8.20026 1.93821
36.5222 8.19699 1.89541
36.5242 8.19678 1.86714
36.5522 8.19381 1.93165
36.5942 8.18936 1.93747
36.6182 8.18681 1.9373
36.6605 8.18231 1.93085
36.707 8.17737 1.93666
36.7121 8.17682 1.90812
36.7274 8.1752 1.93651
36.7461 8.1732 1.85738
36.8018 8.16727 1.93598
36.8143 8.16594 1.84751
36.8185 8.16548 1.93586
36.8783 8.1591 1.93543
36.8811 8.1588 1.86347
36.8914 8.1577 1.93534
36.907 8.15603 1.84592
36.9364 8.15289 1.93502
36.9458 8.15188 1.93495
36.9759 8.14866 1.93473
36.9815 8.14806 1.93469
36.9843 8.14776 1.87267
36.9966 8.14645 1.93459
36.9985 8.14624 1.93457
37.0855 8.13691 1.92772
37.0893 8.1365 1.91781
37.1413 8.13092 1.89993
37.1896 8.12572 1.92696
37.2232 8.1221 1.87409
37.2573 8.11843 1.91653
37.3026 8.11355 1.84109
37.3163 8.11207 1.86758
37.3868 8.10446 1.89591
37.542 8.08765 1.87108
37.5973 8.08165 1.92398
37.6038 8.08094 1.84438
37.6122 8.08003 1.90081
37.627 8.07842 1.88577
37.6969 8.07082 1.92325
37.8342 8.05585 1.89901
37.8999 8.04866 1.8834
37.9188 8.0466 1.91148
37.9836 8.03951 1.84013
38.0159 8.03597 1.92624
38.0357 8.03379 1.92589
38.0815 8.02876 1.91025
38.0861 8.02826 1.92043
38.181 8.01783 1.91975
38.194 8.0164 1.92313
38.2532 8.00989 1.92209
38.2586 8.00929 1.83567
38.2965 8.0051 1.84895
38.3974 7.99396 1.82648
38.424 7.99102 1.8788
38.5508 7.97697 1.91709
38.567 7.97518 1.91659
38.6407 7.96698 1.91644
38.6407 7.96699 1.83015
38.6472 7.96627 1.84536
38.6644 7.96435 1.91487
38.6776 7.96288 1.84649
38.6964 7.96079 1.87428
38.7101 7.95927 1.89198
38.7213 7.95802 1.90543
38.7941 7.9499 1.82119
38.8033 7.94888 1.85925
38.8784 7.9405 1.90426
38.8805 7.94026 1.82179
38.9259 7.93519 1.89027
38.9782 7.92933 1.8741
38.9901 7.928 1.91395
39.0257 7.92401 1.84106
39.0748 7.9185 1.91335
39.1151 7.91398 1.85634
39.1285 7.91247 1.90668
39.2444 7.89944 1.87183
39.2627 7.89737 1.9043
39.2737 7.89613 1.81697
39.4029 7.88155 1.91104
39.4822 7.87259 1.91048
39.4921 7.87146 1.82326
39.495 7.87114 1.89968
39.6461 7.854 1.89857
39.776 7.83923 1.88356
39.7882 7.83784 1.90834
39.8345 7.83256 1.85522
39.8618 7.82944 1.90782
39.8666 7.8289 1.81908
39.8697 7.82855 1.8935
39.9851 7.81535 1.88192
40.0364 7.80949 1.83123
40.0385 7.80925 1.89049
40.1305 7.7987 1.85023
40.1449 7.79704 1.90586
40.1827 7.79271 1.80773
40.2128 7.78925 1.90539
40.2381 7.78634 1.89425
40.2945 7.77985 1.86293
40.3479 7.7737 1.84494
40.3803 7.76996 1.82776
40.3829 7.76966 1.79992
40.383 7.76966 1.8932
40.4456 7.76242 1.81874
40.4724 7.75933 1.90361
40.5343 7.75218 1.90318
40.5534 7.74996 1.86077
40.5712 7.74791 1.80206
40.6524 7.73849 1.84216
40.7697 7.72488 1.90158
40.7792 7.72377 1.87719
40.7804 7.72363 1.7946
40.807 7.72054 1.81302
40.8079 7.72043 1.87556
40.8254 7.71839 1.9012
40.8402 7.71667 1.79782
40.9492 7.70397 1.88913
40.9802 7.70035 1.87356
41.0101 7.69686 1.87401
41.0361 7.69382 1.89978
41.0856 7.68803 1.89944
41.0874 7.68782 1.88815
41.2301 7.6711 1.79306
41.2711 7.66629 1.8982
41.3142 7.66122 1.89791
41.3531 7.65665 1.8026
41.3568 7.65621 1.82943
41.474 7.64242 1.89684
41.5107 7.63809 1.8966
41.5739 7.63062 1.85232
41.6266 7.62439 1.88435
41.6444 7.6223 1.89571
41.6734 7.61886 1.82403
41.6745 7.61873 1.89551
41.7218 7.61313 1.79854
41.7417 7.61077 1.81414
41.758 7.60884 1.88343
41.7818 7.60601 1.8948
41.8041 7.60337 1.86802
41.8053 7.60322 1.89465
41.8252 7.60087 1.85027
41.8444 7.59859 1.85789
41.8552 7.5973 1.83128
41.8861 7.59363 1.89412
41.9029 7.59163 1.89401
41.9568 7.58522 1.89366
41.9669 7.58401 1.89359
41.9939 7.5808 1.89341
41.9973 7.5804 1.89339
41.9988 7.58022 1.86656
42.0749 7.57115 1.8537
42.0784 7.57073 1.81081
42.1348 7.564 1.77918
42.152 7.56194 1.82863
42.2691 7.54794 1.8799
42.2749 7.54725 1.78972
42.3696 7.5359 1.77333
42.3932 7.53306 1.87905
42.5277 7.51689 1.77342
42.647 7.50253 1.78379
42.7626 7.48857 1.86095
42.7665 7.4881 1.76803
42.7819 7.48623 1.77425
42.8144 7.4823 1.84231
42.8751 7.47495 1.87579
42.9496 7.46592 1.85959
42.9759 7.46273 1.8017
42.9919 7.46079 1.87501
43.0147 7.45802 1.88461
43.0331 7.45578 1.88425
43.0516 7.45354 1.83582
43.0577 7.45279 1.84038
43.1677 7.43941 1.7696
43.1801 7.43791 1.8814
43.184 7.43743 1.78261
43.2351 7.43121 1.88033
43.3089 7.4222 1.83109
43.3101 7.42205 1.79595
43.3232 7.42045 1.81833
43.4103 7.40981 1.79781
43.4436 7.40573 1.87202
43.5268 7.39553 1.87465
43.5463 7.39314 1.77871
43.5526 7.39236 1.8713
43.6119 7.3851 1.81584
43.6176 7.3844 1.87289
43.6818 7.3765 1.85436
43.7394 7.36942 1.79464
43.8608 7.35446 1.8531
43.9732 7.34057 1.86857
44.0143 7.3355 1.83294
44.0501 7.33107 1.86444
44.0744 7.32806 1.86792
44.1059 7.32415 1.75034
44.1534 7.31827 1.75976
44.1753 7.31555 1.86199
44.2492 7.30638 1.83114
44.3514 7.29368 1.747
44.387 7.28924 1.81119
44.463 7.27976 1.86546
44.5018 7.27493 1.74457
44.534 7.27091 1.75369
44.5561 7.26815 1.86487
44.5601 7.26765 1.84827
44.6682 7.25413 1.80598
44.6777 7.25295 1.77235
44.7018 7.24993 1.75132
44.7307 7.24631 1.84711
44.7427 7.24481 1.85086
44.7467 7.24431 1.74179
44.7499 7.24391 1.80618
44.9008 7.22497 1.84775
44.912 7.22356 1.86266
44.9821 7.21474 1.76347
44.9968 7.21289 1.86214
45.0268 7.20912 1.76631
45.0301 7.2087 1.80385
45.04 7.20746 1.78236
45.0828 7.20205 1.74684
45.1716 7.19086 1.82424
45.3191 7.1722 1.86017
45.3376 7.16987 1.75976
45.3611 7.1669 1.77938
45.3955 7.16253 1.85971
45.3958 7.16249 1.84267
45.3977 7.16225 1.82258
45.5577 7.14194 1.84161
45.5958 7.1371 1.83405
45.6837 7.12591 1.85799
45.7514 7.11728 1.85759
45.7847 7.11303 1.83032
45.8367 7.10639 1.78428
46.0049 7.08489 1.85611
46.0639 7.07733 1.85576
46.0705 7.07648 1.72921
46.0884 7.07419 1.72155
46.1333 7.06842 1.79488
46.1392 7.06767 1.77864
46.1875 7.06147 1.83756
46.2821 7.0493 1.8545
46.2845 7.049 1.81622
46.3231 7.04403 1.72122
46.3322 7.04285 1.85422
46.3404 7.0418 1.8366
46.4047 7.03352 1.79273
46.4493 7.02777 1.74169
46.4577 7.02667 1.72306
46.4856 7.02307 1.71583
46.5016 7.02102 1.8147
46.5148 7.01931 1.85318
46.5559 7.01399 1.85295
46.5963 7.00877 1.72928
46.5989 7.00843 1.81418
46.6287 7.00458 1.7679
46.7024 6.99504 1.85212
46.7158 6.99331 1.71616
46.7345 6.99088 1.85195
46.7449 6.98953 1.74534
46.8109 6.98096 1.73543
46.8166 6.98022 1.80986
46.8446 6.97659 1.85133
46.8676 6.97361 1.85121
46.9337 6.96501 1.83293
46.9411 6.96405 1.8508
46.9413 6.96402 1.76513
46.9549 6.96225 1.85072
46.9718 6.96005 1.725
46.9917 6.95746 1.85052
46.9963 6.95686 1.8505
47.0773 6.94631 1.83206
47.093 6.94427 1.74185
47.3512 6.91053 1.8089
47.3874 6.90579 1.75537
47.4716 6.89474 1.78448
47.5589 6.88329 1.80752
47.633 6.87354 1.82876
47.7085 6.86361 1.74938
47.7337 6.86029 1.78251
47.741 6.85933 1.79146
47.7672 6.85588 1.82798
47.985 6.82711 1.7866
48.0138 6.82331 1.84151
48.0168 6.82291 1.69844
48.031 6.82103 1.84115
48.0752 6.81517 1.69316
48.1686 6.8028 1.83825
48.1742 6.80206 1.75452
48.22 6.79597 1.83716
48.279 6.78814 1.71009
48.2798 6.78803 1.6963
48.2843 6.78744 1.82503
48.3701 6.77603 1.80227
48.4086 6.7709 1.82434
48.4088 6.77087 1.69229
48.4619 6.7638 1.70835
48.4697 6.76276 1.72838
48.4726 6.76238 1.68756
48.4779 6.76167 1.75197
48.4935 6.7596 1.8314
48.568 6.74966 1.80103
48.5785 6.74825 1.8296
48.651 6.73857 1.70369
48.669 6.73617 1.69144
48.7627 6.72362 1.775
48.8099 6.7173 1.72514
48.8313 6.71444 1.70431
48.8862 6.70708 1.82174
48.9845 6.69388 1.82103
49.0005 6.69173 1.82113
49.0101 6.69044 1.76614
49.0151 6.68977 1.77322
49.0262 6.68828 1.7248
49.1022 6.67806 1.81854
49.2781 6.65435 1.76078
49.3394 6.64609 1.79632
49.3635 6.64283 1.71851
49.4376 6.63281 1.81884
49.5271 6.62069 1.79521
49.5417 6.61872 1.81831
49.6361 6.60593 1.80724
49.6743 6.60075 1.74228
49.7851 6.5857 1.80409
49.9375 6.56495 1.81632
49.9686 6.56071 1.73997
49.9839 6.55864 1.66781
50.0047 6.55579 1.76647
50.0313 6.55217 1.81586
50.0602 6.54822 1.6655
50.154 6.53541 1.71272
50.1562 6.5351 1.67794
50.2171 6.52678 1.6725
50.2471 6.52268 1.76487
50.2575 6.52126 1.79104
50.2955 6.51605 1.68872
50.3791 6.5046 1.66174
50.385 6.50378 1.81416
50.3944 6.50249 1.73848
50.4348 6.49695 1.79005
50.4408 6.49612 1.79019
50.4565 6.49398 1.66009
50.4682 6.49237 1.81377
50.4858 6.48995 1.70976
50.5365 6.48298 1.67148
50.6019 6.47399 1.6679
50.6194 6.47158 1.7864
50.6581 6.46626 1.68497
50.684 6.46269 1.7327
50.7413 6.4548 1.69292
50.7793 6.44956 1.81233
50.8516 6.43957 1.812
51.0924 6.40627 1.68643
51.1194 6.40254 1.8108
51.1227 6.40207 1.78638
51.1268 6.40152 1.73124
51.1809 6.39401 1.81053
51.1957 6.39196 1.75887
51.2893 6.37896 1.78552
51.3902 6.36493 1.77005
51.4048 6.3629 1.80956
51.4113 6.36199 1.72918
51.4276 6.35973 1.75746
51.4553 6.35588 1.80935
51.5967 6.33617 1.76566
51.635 6.33083 1.80859
51.6743 6.32533 1.80843
51.7952 6.30844 1.69847
51.8094 6.30645 1.80787
51.8376 6.30251 1.80776
51.882 6.29629 1.70882
51.9278 6.28987 1.80739
51.9337 6.28904 1.78232
51.9447 6.2875 1.80732
51.964 6.2848 1.63773
51.9898 6.28117 1.80714
51.9955 6.28038 1.80712
52.0376 6.27447 1.63891
52.0714 6.26973 1.64564
52.0893 6.26722 1.78158
52.0937 6.26659 1.67059
52.118 6.26318 1.69579
52.1308 6.26138 1.6501
52.1909 6.25293 1.70268
52.3337 6.23283 1.75219
52.3609 6.22899 1.63181
52.4317 6.21901 1.63375
52.4489 6.21659 1.66715
52.4581 6.21528 1.6392
52.4749 6.21291 1.74703
52.5104 6.2079 1.64581
52.5214 6.20635 1.66014
52.5294 6.20521 1.72142
52.5547 6.20163 1.75096
52.6889 6.18265 1.77882
52.7072 6.18007 1.7421
52.8038 6.16638 1.7196
52.8331 6.16221 1.77818
52.8843 6.15495 1.65351
53.013 6.13667 1.7982
53.0292 6.13436 1.79783
53.1587 6.11592 1.79494
53.2072 6.10902 1.79385
53.3869 6.08336 1.77584
53.3906 6.08284 1.68569
53.4167 6.0791 1.7464
53.4615 6.07271 1.6775
53.4649 6.07222 1.78809
53.5196 6.06439 1.7753
53.5451 6.06074 1.78629
53.6266 6.04906 1.74535
53.6847 6.04073 1.7214
53.7039 6.03797 1.68332
53.7874 6.02599 1.67107
53.8535 6.01649 1.6541
53.88 6.01268 1.71283
53.9282 6.00574 1.77773
53.9408 6.00393 1.71599
53.9502 6.00257 1.60858
54.0021 5.99511 1.61373
54.0156 5.99317 1.61362
54.0169 5.99298 1.62933
54.0265 5.99159 1.77332
54.0394 5.98974 1.77524
54.1437 5.9747 1.71126
54.1473 5.97417 1.77287
54.2006 5.96649 1.65101
54.3477 5.94523 1.60289
54.3562 5.94399 1.62687
54.3904 5.93904 1.62539
54.393 5.93866 1.60888
54.4072 5.93662 1.60728
54.4431 5.93141 1.74146
54.5441 5.91677 1.76396
54.6065 5.90773 1.77123
54.6414 5.90266 1.74057
54.6851 5.89631 1.76081
54.7152 5.89194 1.77085
54.7289 5.88994 1.62019
54.9377 5.85957 1.67445
55.0094 5.8491 1.69345
55.1218 5.83271 1.64491
55.1257 5.83214 1.76951
55.1763 5.82474 1.70545
55.2221 5.81804 1.7692
55.2411 5.81528 1.67239
55.2872 5.80852 1.68761
55.3065 5.8057 1.74693
55.4109 5.7904 1.73732
55.4289 5.78778 1.70412
55.4626 5.78283 1.63828
55.476 5.78087 1.74315
55.5717 5.76682 1.63938
55.5831 5.76515 1.76812
55.5973 5.76306 1.73659
55.6671 5.75281 1.76788
55.8714 5.72273 1.61041
55.9101 5.71703 1.63666
55.9363 5.71316 1.58074
55.9489 5.71131 1.59025
55.9778 5.70704 1.76701
55.9808 5.7066 1.5823
56.0492 5.69651 1.76682
56.2083 5.67299 1.72684
56.2363 5.66884 1.59355
56.2382 5.66856 1.60687
56.3091 5.65807 1.76616
56.3185 5.65668 1.73392
56.333 5.65453 1.57537
56.3357 5.65413 1.58578
56.3677 5.64939 1.76601
56.3758 5.64819 1.57617
56.4047 5.6439 1.72248
56.4161 5.6422 1.69925
56.4338 5.63958 1.66477
56.4386 5.63887 1.66352
56.4926 5.63086 1.73332
56.5762 5.61843 1.76552
56.617 5.61238 1.58692
56.6219 5.61164 1.76541
56.6571 5.60641 1.69815
56.7267 5.59606 1.66302
56.7361 5.59466 1.65733
56.7787 5.58831 1.76506
56.8114 5.58344 1.76498
56.8525 5.57732 1.61147
56.9161 5.56783 1.76476
56.9358 5.5649 1.76472
56.9882 5.55708 1.76461
56.9948 5.5561 1.76459
57.164 5.53081 1.73118
57.2062 5.52449 1.60472
57.2415 5.51922 1.70392
57.2453 5.51864 1.62652
57.3255 5.50663 1.73071
57.4631 5.48599 1.69901
57.5744 5.46928 1.62417
57.5973 5.46585 1.69418
57.6908 5.45178 1.59353
57.8262 5.43138 1.69329
57.8732 5.4243 1.56876
57.8765 5.42381 1.65664
57.9163 5.41781 1.55461
57.9459 5.41334 1.72903
57.9598 5.41124 1.55214
57.962 5.41092 1.63198
58.0123 5.40332 1.75602
58.0276 5.40101 1.75566
58.0501 5.39761 1.59041
58.0946 5.39089 1.72867
58.1501 5.3825 1.75281
58.1528 5.38209 1.56066
58.1584 5.38125 1.6552
58.1959 5.37557 1.75175
58.255 5.36663 1.56473
58.2771 5.36328 1.62551
58.3111 5.35813 1.54962
58.3566 5.35123 1.54629
58.3975 5.34504 1.67842
58.4397 5.33863 1.74608
58.5157 5.3271 1.74432
58.5397 5.32346 1.55417
58.6426 5.30782 1.67304
58.6438 5.30763 1.57764
58.6628 5.30476 1.7274
58.7175 5.29643 1.69015
58.7982 5.28415 1.72713
58.8712 5.27302 1.61557
58.8786 5.2719 1.7359
58.9341 5.26344 1.68947
58.984 5.25583 1.73346
59.0086 5.25208 1.57087
59.1904 5.2243 1.61361
59.263 5.2132 1.65003
59.313 5.20554 1.72621
59.435 5.18686 1.72602
59.4628 5.18259 1.72239
59.4713 5.1813 1.57881
59.5334 5.17177 1.64888
59.5695 5.16622 1.59924
59.5967 5.16205 1.7193
59.6673 5.1512 1.65066
59.7707 5.13532 1.54952
59.7749 5.13467 1.6871
59.8224 5.12736 1.57614
59.8846 5.11777 1.53053
59.8954 5.11612 1.72538
59.9003 5.11537 1.59258
59.9342 5.11014 1.64487
59.9457 5.10837 1.52357
59.9786 5.1033 1.6866
60.0036 5.09944 1.72525
60.0975 5.08496 1.52867
60.1465 5.07739 1.54596
60.1873 5.07109 1.70569
60.2765 5.05732 1.52599
60.3431 5.04701 1.51809
60.3486 5.04617 1.70199
60.4087 5.03686 1.72484
60.4464 5.03102 1.60655
60.4865 5.02481 1.54389
60.4891 5.0244 1.52242
60.503 5.02226 1.72476
60.5909 5.00863 1.64487
60.7551 4.98314 1.60497
60.7672 4.98127 1.68492
60.8492 4.96852 1.64401
60.8518 4.96811 1.72451
60.8604 4.96677 1.5372
60.9319 4.95565 1.72447
60.9577 4.95165 1.68458
61.0419 4.93853 1.621
61.0461 4.93787 1.68601
61.2093 4.91244 1.56637
61.2238 4.91017 1.72435
61.2334 4.90867 1.68174
61.2515 4.90584 1.56575
61.2896 4.8999 1.72433
61.3286 4.89382 1.61487
61.5239 4.86328 1.72429
61.5515 4.85896 1.56415
61.5752 4.85525 1.72428
61.5961 4.85198 1.559
61.6369 4.84559 1.53272
61.6925 4.83687 1.6835
61.7514 4.82765 1.72428
61.7881 4.82188 1.72428
61.8362 4.81435 1.50883
61.8575 4.811 1.64109
61.8694 4.80913 1.6833
61.9058 4.80342 1.7243
61.9278 4.79995 1.7243
61.9321 4.79928 1.49702
61.9678 4.79367 1.59943
61.9867 4.79069 1.72431
61.9941 4.78954 1.72432
62.006 4.78766 1.52967
62.0324 4.78351 1.66358
62.0628 4.77873 1.49807
62.1032 4.77237 1.64049
62.224 4.75337 1.5048
62.2443 4.75016 1.65879
62.2654 4.74684 1.59823
62.3289 4.73683 1.49199
62.3719 4.73005 1.51075
62.4578 4.7165 1.49216
62.512 4.70794 1.58982
62.5489 4.70211 1.68273
62.7117 4.67637 1.68265
62.7534 4.66978 1.50424
62.8167 4.65976 1.58344
62.9013 4.64635 1.55624
62.9988 4.63089 1.532
63.0116 4.62886 1.71638
63.0262 4.62655 1.71604
63.0603 4.62113 1.63858
63.1388 4.60867 1.63869
63.1423 4.60811 1.71329
63.1858 4.60121 1.71226
63.2339 4.59357 1.5545
63.293 4.58416 1.63821
63.3345 4.57756 1.68251
63.3553 4.57425 1.52526
63.3738 4.57131 1.63344
63.4172 4.56441 1.7068
63.4325 4.56198 1.59416
63.4678 4.55635 1.51854
63.483 4.55392 1.68252
63.4893 4.55293 1.7051
63.7183 4.5164 1.59332
63.7658 4.50882 1.48978
63.8293 4.49867 1.51602
63.834 4.49793 1.69699
63.9131 4.48529 1.47289
63.9341 4.48193 1.69464
64.0418 4.4647 1.46936
64.0477 4.46374 1.6827
64.0685 4.46042 1.55756
64.1487 4.44758 1.48631
64.1815 4.44231 1.68278
64.1969 4.43986 1.6372
64.2918 4.42463 1.47872
64.3081 4.42202 1.46838
64.3575 4.41409 1.61165
64.3894 4.40898 1.55102
64.3895 4.40896 1.68397
64.416 4.4047 1.63705
64.4386 4.40108 1.46388
64.5169 4.3885 1.681
64.5438 4.38418 1.54844
64.614 4.37288 1.60601
64.6793 4.36238 1.4725
64.6869 4.36116 1.68321
64.8026 4.34253 1.4985
64.8057 4.34203 1.68334
64.8373 4.33694 1.59064
64.866 4.33231 1.54716
65.0794 4.29789 1.66791
65.1108 4.29282 1.59014
65.1694 4.28336 1.49188
65.2331 4.27306 1.66435
65.2506 4.27024 1.68392
65.2592 4.26885 1.50706
65.2648 4.26794 1.63682
65.3541 4.25349 1.68408
65.4699 4.23475 1.63685
65.6123 4.21167 1.50509
65.6688 4.20251 1.47363
65.6805 4.20061 1.58282
65.7025 4.19703 1.52469
65.7374 4.19138 1.68474
65.8255 4.17708 1.6849
65.8829 4.16775 1.45153
65.8987 4.16518 1.64901
65.9569 4.15573 1.57688
66.0276 4.14422 1.44299
66.0379 4.14255 1.51809
66.0458 4.14127 1.47076
66.0776 4.13609 1.64491
66.1332 4.12704 1.54292
66.1463 4.12491 1.68557
66.1793 4.11953 1.58876
66.2186 4.11313 1.68573
66.2388 4.10985 1.44835
66.2616 4.10613 1.63729
66.2751 4.10393 1.44762
66.4251 4.07947 1.43804
66.4399 4.07704 1.58856
66.4444 4.07631 1.54209
66.4522 4.07504 1.63747
66.4762 4.07112 1.68633
66.5327 4.0619 1.68647
66.6307 4.04589 1.44252
66.6544 4.04202 1.4658
66.7265 4.03024 1.68697
66.7669 4.02363 1.68708
66.8416 4.01141 1.62751
66.8963 4.00244 1.68744
66.9206 3.99846 1.68751
66.9854 3.98785 1.68769
66.9935 3.98652 1.68771
67.007 3.98431 1.49833
67.0298 3.98057 1.4594
67.0444 3.97818 1.62292
67.0995 3.96914 1.55263
67.1851 3.9551 1.63845
67.351 3.92787 1.49691
67.3608 3.92625 1.63875
67.3941 3.92078 1.54647
67.4056 3.9189 1.49172
67.4556 3.91067 1.58834
67.5404 3.89672 1.46053
67.6661 3.87604 1.53959
67.7027 3.87 1.58842
67.7537 3.86161 1.48516
67.8362 3.84801 1.43327
67.9016 3.83723 1.6037
67.9106 3.83575 1.45829
67.9656 3.82667 1.53918
68.0111 3.81916 1.68072
68.0141 3.81867 1.41942
68.0249 3.81688 1.6804
68.0331 3.81552 1.64014
68.127 3.80001 1.59869
68.1352 3.79866 1.6778
68.1766 3.79183 1.67683
68.1935 3.78903 1.64052
68.2054 3.78705 1.42016
68.2244 3.78392 1.43001
68.3965 3.75545 1.67167
68.4109 3.75307 1.41508
68.465 3.7441 1.67006
68.5464 3.73062 1.43445
68.6005 3.72165 1.41483
68.6064 3.72068 1.52152
68.6633 3.71125 1.58923
68.7072 3.70396 1.49234
68.793 3.68973 1.66241
68.8036 3.68797 1.6422
68.8883 3.67391 1.66019
68.8963 3.67258 1.58955
68.9176 3.66904 1.51522
68.929 3.66716 1.4284
68.9482 3.66396 1.64264
69.0412 3.6485 1.49146
69.072 3.64339 1.57791
69.139 3.63225 1.53831
69.1692 3.62721 1.4592
69.3187 3.60233 1.57255
69.322 3.60178 1.65013
69.3761 3.59277 1.4506
69.426 3.58444 1.53829
69.4434 3.58156 1.64733
69.4946 3.57301 1.64448
69.5285 3.56736 1.4528
69.6232 3.55157 1.64495
69.7385 3.53232 1.449
69.7676 3.52745 1.41835
69.7994 3.52214 1.59123
69.9799 3.49198 1.63501
69.9951 3.48943 1.39904
70.0178 3.48562 1.59174
70.1045 3.47112 1.64683
70.1265 3.46743 1.63167
70.1508 3.46336 1.41578
70.1851 3.45763 1.39467
70.1931 3.45628 1.48997
70.2166 3.45235 1.6473
70.3456 3.43072 1.55052
70.3559 3.429 1.48901
70.3901 3.42326 1.39538
70.4711 3.40969 1.40503
70.5193 3.40159 1.48366
70.5484 3.39671 1.53891
70.582 3.39107 1.38994
70.6121 3.38601 1.54488
70.6316 3.38274 1.64913
70.6791 3.37476 1.48865
70.7269 3.36672 1.64957
70.7623 3.36078 1.61726
70.8223 3.35068 1.53924
70.8593 3.34447 1.39943
70.8613 3.34413 1.59413
70.9333 3.33203 1.61341
70.9856 3.32322 1.4277
71.0645 3.30993 1.59481
71.0745 3.30825 1.65125
71.1529 3.29505 1.65164
71.1712 3.29196 1.44386
71.3545 3.26106 1.42157
71.4321 3.24797 1.65308
71.4933 3.23764 1.6534
71.525 3.23228 1.44289
71.6642 3.20877 1.59711
71.6721 3.20744 1.40695
71.7033 3.20216 1.65454
71.7153 3.20013 1.52194
71.7472 3.19475 1.65479
71.8462 3.178 1.59774
71.8516 3.17708 1.45852
71.8585 3.17592 1.59281
71.8875 3.17101 1.65558
71.8909 3.17044 1.54119
71.9139 3.16655 1.65573
71.9491 3.1606 1.48821
71.9649 3.15791 1.38219
71.9842 3.15465 1.65613
71.993 3.15316 1.65618
72.0001 3.15195 1.51613
72.0338 3.14626 1.59852
72.0493 3.14363 1.4051
72.1511 3.12638 1.54182
72.1711 3.12298 1.37234
72.1913 3.11957 1.4523
72.2607 3.1078 1.48834
72.357 3.09146 1.37927
72.4212 3.08058 1.3781
72.5686 3.05555 1.3683
72.6802 3.03658 1.57486
72.7516 3.02444 1.60183
72.8136 3.0139 1.37306
72.847 3.00822 1.3978
72.8966 2.99979 1.57019
72.9214 2.99556 1.44027
72.923 2.9953 1.60269
73.0105 2.9804 1.6504
73.0236 2.97817 1.6501
73.1286 2.96029 1.6477
73.1632 2.9544 1.54491
73.1679 2.95359 1.64681
73.1737 2.95261 1.49265
73.2241 2.94402 1.39206
73.2657 2.93693 1.43992
73.3772 2.91791 1.64205
73.4089 2.91251 1.5458
73.4424 2.90678 1.64057
73.4753 2.90117 1.48675
73.4827 2.8999 1.48975
73.5445 2.88935 1.39916
73.5742 2.88428 1.42774
73.5751 2.88413 1.6062
73.7298 2.85772 1.60709
73.7547 2.85345 1.63351
73.782 2.84879 1.49032
73.8044 2.84496 1.55085
73.8455 2.83793 1.63147
73.9148 2.82608 1.39804
73.9179 2.82555 1.36913
73.9258 2.8242 1.42171
74.0416 2.80437 1.54587
74.1574 2.78455 1.35361
74.2588 2.76719 1.62222
74.306 2.7591 1.36699
74.3143 2.75767 1.61065
74.3618 2.74953 1.54982
74.3745 2.74735 1.61964
74.3899 2.74472 1.3542
74.4519 2.73408 1.61154
74.5542 2.71654 1.35033
74.5925 2.70997 1.55092
74.6222 2.70486 1.43971
74.7133 2.68922 1.46313
74.7462 2.68358 1.3701
74.7853 2.67686 1.34983
74.8864 2.65949 1.60833
74.953 2.64804 1.4934
74.956 2.64752 1.43994
74.9673 2.64558 1.615
75.0264 2.63541 1.60526
75.0303 2.63474 1.45725
75.0304 2.63472 1.52546
75.0873 2.62493 1.61585
75.1299 2.61761 1.36487
75.2391 2.59882 1.49436
75.2873 2.59052 1.52025
75.3534 2.57913 1.39821
75.3801 2.57454 1.39499
75.4837 2.55668 1.55566
75.532 2.54836 1.61908
75.6338 2.53081 1.59206
75.6342 2.53074 1.61985
75.6986 2.51963 1.55692
75.7154 2.51673 1.3925
75.7423 2.51209 1.39458
75.7973 2.50261 1.58854
75.8486 2.49375 1.36003
76.0069 2.46642 1.62274
76.0909 2.45189 1.62341
76.1379 2.44378 1.33881
76.2316 2.42758 1.35869
76.269 2.4211 1.44199
76.3269 2.41109 1.43394
76.3519 2.40677 1.49911
76.3559 2.40608 1.4989
76.3706 2.40353 1.33382
76.3904 2.4001 1.62584
76.4561 2.38874 1.62639
76.4967 2.38171 1.57366
76.5257 2.3767 1.56217
76.5327 2.37548 1.33635
76.5916 2.36529 1.44277
76.6271 2.35914 1.49377
76.628 2.35897 1.50019
76.6579 2.3538 1.42818
76.676 2.35067 1.34518
76.6815 2.34971 1.62829
76.6828 2.3495 1.56974
76.7242 2.34232 1.56353
76.7286 2.34156 1.62869
76.7677 2.33478 1.33021
76.8793 2.31544 1.63
76.9075 2.31053 1.63024
76.983 2.29745 1.63091
76.9924 2.29581 1.63099
77.065 2.28322 1.34058
77.1737 2.26437 1.39435
77.1819 2.26293 1.37052
77.4704 2.21283 1.55341
77.4847 2.21035 1.56908
77.5269 2.203 1.39463
77.5529 2.19848 1.36526
77.6662 2.17878 1.57049
77.678 2.17674 1.54917
77.6876 2.17507 1.50594
77.7516 2.16394 1.35495
77.7623 2.16208 1.47227
77.8576 2.14549 1.44688
77.945 2.13027 1.50751
78.0075 2.1194 1.40563
78.01 2.11896 1.62667
78.0225 2.11678 1.6264
78.0544 2.11122 1.46689
78.1066 2.10214 1.32822
78.1223 2.09939 1.62424
78.1283 2.09834 1.35442
78.1597 2.09287 1.62344
78.1679 2.09146 1.44814
78.351 2.05954 1.40012
78.3571 2.05848 1.3174
78.3578 2.05835 1.57614
78.3589 2.05817 1.61917
78.421 2.04734 1.61784
78.4984 2.03383 1.32662
78.5219 2.02972 1.57754
78.5497 2.02488 1.53166
78.6297 2.01092 1.32359
78.7183 1.99546 1.61151
78.7545 1.98914 1.31462
78.7778 1.98507 1.52716
78.8048 1.98036 1.60968
78.9205 1.96014 1.39708
78.9443 1.95599 1.51423
79.0228 1.94227 1.31972
79.0527 1.93704 1.34529
79.1425 1.92134 1.5831
79.1863 1.91369 1.516
79.1986 1.91154 1.6014
79.2548 1.9017 1.44545
79.2638 1.90013 1.39801
79.2886 1.89579 1.58446
79.3089 1.89224 1.5991
79.3833 1.87922 1.45407
79.4313 1.87082 1.34059
79.5626 1.84784 1.44013
79.6215 1.83754 1.35388
79.6806 1.82718 1.45575
79.7292 1.81867 1.50879
79.7478 1.81541 1.37879
79.7972 1.80676 1.589
79.8363 1.79991 1.58974
79.9308 1.78334 1.58627
79.9639 1.77754 1.59101
79.9766 1.77531 1.50411
79.991 1.77279 1.35413
80.0578 1.76108 1.32197
80.1025 1.75325 1.37366
80.1222 1.74978 1.52342
80.3429 1.71105 1.30527
80.3481 1.71016 1.52534
80.4368 1.69458 1.59585
80.4454 1.69307 1.32124
80.5109 1.68158 1.57452
80.5455 1.67549 1.59699
80.6008 1.66579 1.30583
80.6156 1.66318 1.40293
80.6671 1.65414 1.57139
80.7395 1.64141 1.30339
80.823 1.62674 1.41916
80.8419 1.62342 1.46323
80.9421 1.60581 1.60125
80.948 1.60478 1.40444
80.9589 1.60286 1.3231
80.9965 1.59624 1.30278
81.0031 1.59509 1.48521
81.0316 1.59008 1.60223
81.1252 1.57361 1.46527
81.1451 1.57011 1.41402
81.2178 1.55732 1.53321
81.2687 1.54837 1.48045
81.336 1.53653 1.5582
81.3438 1.53515 1.31907
81.3505 1.53397 1.60578
81.4204 1.52166 1.60658
81.4268 1.52055 1.53521
81.453 1.51593 1.35667
81.514 1.50519 1.55474
81.5411 1.50041 1.35404
81.6606 1.47937 1.60933
81.7107 1.47054 1.60991
81.8142 1.45231 1.35767
81.8713 1.44225 1.61179
81.9015 1.43694 1.61215
81.9056 1.43621 1.34939
81.9819 1.42276 1.6131
81.9858 1.42206 1.32011
81.992 1.42098 1.61322
82.2276 1.37943 1.54327
82.229 1.37918 1.474
82.2541 1.37476 1.41158
82.2684 1.37223 1.54032
82.3223 1.36273 1.29769
82.3656 1.35509 1.46138
82.3682 1.35463 1.32025
82.4189 1.34568 1.54529
82.4602 1.33839 1.39399
82.4674 1.33712 1.53659
82.4974 1.33182 1.47631
82.5746 1.3182 1.41361
82.5828 1.31675 1.29233
82.6482 1.30521 1.45663
82.7168 1.29309 1.29673
82.7954 1.27922 1.38913
82.8939 1.26181 1.30448
82.98 1.24661 1.29017
83.0095 1.24139 1.61054
83.0214 1.23929 1.61031
83.1163 1.22252 1.60843
83.1481 1.21689 1.5533
83.1519 1.21623 1.60773
83.2408 1.20051 1.3631
83.2838 1.19291 1.30123
83.3037 1.18938 1.52123
83.3212 1.18629 1.55527
83.3412 1.18276 1.60402
83.3807 1.17577 1.33195
83.4003 1.17231 1.60286
83.5227 1.15066 1.5173
83.5402 1.14757 1.486
83.5927 1.13828 1.36479
83.6831 1.12228 1.59737
83.7536 1.1098 1.3279
83.7654 1.10771 1.59578
83.7929 1.10284 1.48851
83.8107 1.0997 1.4378
83.8311 1.09609 1.42267
83.885 1.08655 1.32255
83.9763 1.07038 1.56301
84.1091 1.04687 1.43315
84.1306 1.04306 1.56489
84.1386 1.04164 1.42515
84.1404 1.04134 1.58861
84.1599 1.03787 1.37049
84.2455 1.02272 1.58661
84.2609 1.01999 1.32354
84.289 1.015 1.29475
84.4371 0.988778 1.50129
84.5068 0.976421 1.36604
84.5695 0.965304 1.28339
84.6751 0.9466 1.49724
84.6804 0.945661 1.29473
84.7093 0.940538 1.57213
84.7107 0.940282 1.57789
84.7712 0.929553 1.49884
84.8381 0.917694 1.57553
84.8442 0.916618 1.57386
84.8513 0.915364 1.28993
84.9669 0.894858 1.28218
84.9796 0.892607 1.37284
85.0075 0.887667 1.50148
85.2449 0.845556 1.28754
85.2601 0.842855 1.31309
85.321 0.832047 1.37516
85.3324 0.830018 1.41497
85.3416 0.828394 1.4358
85.3443 0.82791 1.58044
85.3914 0.819548 1.56542
85.4594 0.807495 1.58198
85.5406 0.793083 1.56274
85.6353 0.776271 1.43863
85.6402 0.775406 1.30975
85.6454 0.774467 1.41054
85.6635 0.771269 1.48091
85.7497 0.755964 1.32911
85.8791 0.732983 1.58771
85.9157 0.726478 1.34925
85.918 0.726081 1.51215
85.9195 0.72582 1.47681
85.9739 0.716159 1.58903
86.118 0.690565 1.33089
86.1369 0.687209 1.51483
86.1794 0.67965 1.55144
86.2373 0.669362 1.29647
86.2731 0.663011 1.34532
86.3116 0.656163 1.59378
86.3496 0.649422 1.54848
86.3857 0.643003 1.59484
86.5548 0.612952 1.27924
86.6243 0.600615 1.29736
86.6402 0.59778 1.59851
86.664 0.593554 1.38553
86.6933 0.588339 1.59928
86.7808 0.572801 1.45053
86.8247 0.564995 1.27982
86.8636 0.558082 1.60177
86.8955 0.552401 1.60224
86.9248 0.547193 1.39344
86.9512 0.542506 1.27899
86.9764 0.53802 1.52555
86.9777 0.537788 1.46051
86.9808 0.53724 1.6035
86.9915 0.535344 1.60366
86.9939 0.534918 1.38838
87.0596 0.523232 1.45363
87.0711 0.521188 1.53622
87.1728 0.503107 1.29798
87.1772 0.50233 1.52822
87.2207 0.494582 1.27836
87.2506 0.489263 1.45647
87.2512 0.489157 1.38934
87.2615 0.487326 1.53305
87.5588 0.434464 1.29544
87.5741 0.431731 1.33948
87.7214 0.405542 1.33083
87.9337 0.367769 1.34198
87.9427 0.366176 1.53871
88.009 0.354371 1.60275
88.0203 0.352366 1.60256
88.0626 0.344839 1.52007
88.0879 0.340329 1.32753
88.1104 0.336338 1.60099
88.1245 0.333819 1.54128
88.1437 0.330409 1.46643
88.1441 0.330332 1.6004
88.1612 0.327287 1.30269
88.2725 0.307489 1.51676
88.2886 0.304628 1.40072
88.3239 0.298344 1.59728
88.3745 0.289336 1.44057
88.38 0.288362 1.59632
88.4067 0.283607 1.46971
88.5326 0.261205 1.27992
88.5426 0.259429 1.30446
88.5819 0.252437 1.37375
88.6058 0.248168 1.40401
88.6486 0.240552 1.59172
88.6633 0.237942 1.43668
88.7268 0.226638 1.5904
88.8079 0.212206 1.27445
88.8131 0.211285 1.55129
88.9205 0.192165 1.37007
88.9267 0.19106 1.28064
88.9754 0.1824 1.55371
89.0832 0.163209 1.58442
89.1126 0.157976 1.28705
89.1497 0.15136 1.50334
89.1831 0.145422 1.58276
89.2052 0.141491 1.27396
89.3527 0.115236 1.35329
89.3783 0.11068 1.49996
89.4256 0.102256 1.48305
89.5032 0.0884332 1.28539
89.5706 0.076436 1.31574
89.5843 0.0740088 1.56299
89.6256 0.0666473 1.57551
89.6718 0.0584212 1.48642
89.7024 0.0529859 1.35642
89.7263 0.0487206 1.5652
89.7469 0.0450635 1.57356
89.848 0.0270668 1.41793
89.8485 0.0269763 1.42157
89.9452 0.00975817 1.31317
90.0548 -0.00975817 1.31317
90.1515 -0.0269763 1.42157
90.152 -0.0270668 1.41793
90.2531 -0.0450635 1.57356
90.2737 -0.0487206 1.5652
90.2976 -0.0529859 1.35642
90.3282 -0.0584212 1.48642
90.3744 -0.0666473 1.57551
90.4157 -0.0740088 1.56299
90.4294 -0.076436 1.31574
90.4968 -0.0884332 1.28539
90.5744 -0.102256 1.48305
90.6217 -0.11068 1.49996
90.6473 -0.115236 1.35329
90.7948 -0.141491 1.27396
90.8169 -0.145422 1.58276
90.8503 -0.15136 1.50334
90.8874 -0.157976 1.28705
90.9168 -0.163209 1.58442
91.0246 -0.1824 1.55371
91.0733 -0.19106 1.28064
91.0795 -0.192165 1.37007
91.1869 -0.211285 1.55129
91.1921 -0.212206 1.27445
91.2732 -0.226638 1.5904
91.3367 -0.237942 1.43668
91.3514 -0.240552 1.59172
91.3942 -0.248168 1.40401
91.4181 -0.252437 1.37375
91.4574 -0.259429 1.30446
91.4674 -0.261205 1.27992
91.5933 -0.283607 1.46971
91.62 -0.288362 1.59632
91.6255 -0.289336 1.44057
91.6761 -0.298344 1.59728
91.7114 -0.304628 1.40072
91.7275 -0.307489 1.51676
91.8388 -0.327287 1.30269
91.8559 -0.330332 1.6004
91.8563 -0.330409 1.46643
91.8755 -0.333819 1.54128
91.8896 -0.336338 1.60099
91.9121 -0.340329 1.32753
91.9374 -0.344839 1.52007
91.9797 -0.352366 1.60256
91.991 -0.354371 1.60275
92.0573 -0.366176 1.53871
92.0663 -0.367769 1.34198
92.2786 -0.405542 1.33083
92.4259 -0.431731 1.33948
92.4412 -0.434464 1.29544
92.7385 -0.487326 1.53305
92.7488 -0.489157 1.38934
92.7494 -0.489263 1.45647
92.7793 -0.494582 1.27836
92.8228 -0.50233 1.52822
92.8272 -0.503107 1.29798
92.9289 -0.521188 1.53622
92.9404 -0.523232 1.45363
93.0061 -0.534918 1.38838
93.0085 -0.535344 1.60366
93.0192 -0.53724 1.6035
93.0223 -0.537788 1.46051
93.0236 -0.53802 1.52555
93.0488 -0.542506 1.27899
93.0752 -0.547193 1.39344
93.1045 -0.552401 1.60224
93.1364 -0.558082 1.60177
93.1753 -0.564995 1.27982
93.2192 -0.572801 1.45053
93.3067 -0.588339 1.59928
93.336 -0.593554 1.38553
93.3598 -0.59778 1.59851
93.3757 -0.600615 1.29736
93.4452 -0.612952 1.27924
93.6143 -0.643003 1.59484
93.6504 -0.649422 1.54848
93.6884 -0.656163 1.59378
93.7269 -0.663011 1.34532
93.7627 -0.669362 1.29647
93.8206 -0.67965 1.55144
93.8631 -0.687209 1.51483
93.882 -0.690565 1.33089
94.0261 -0.716159 1.58903
94.0805 -0.72582 1.47681
94.082 -0.726081 1.51215
94.0843 -0.726478 1.34925
94.1209 -0.732983 1.58771
94.2503 -0.755964 1.32911
94.3365 -0.771269 1.48091
94.3546 -0.774467 1.41054
94.3598 -0.775406 1.30975
94.3647 -0.776271 1.43863
94.4594 -0.793083 1.56274
94.5406 -0.807495 1.58198
94.6086 -0.819548 1.56542
94.6557 -0.82791 1.58044
94.6584 -0.828394 1.4358
94.6676 -0.830018 1.41497
94.679 -0.832047 1.37516
94.7399 -0.842855 1.31309
94.7551 -0.845556 1.28754
94.9925 -0.887667 1.50148
95.0204 -0.892607 1.37284
95.0331 -0.894858 1.28218
95.1487 -0.915364 1.28993
95.1558 -0.916618 1.57386
95.1619 -0.917694 1.57553
95.2288 -0.929553 1.49884
95.2893 -0.940282 1.57789
95.2907 -0.940538 1.57213
95.3196 -0.945661 1.29473
95.3249 -0.9466 1.49724
95.4305 -0.965304 1.28339
95.4932 -0.976421 1.36604
95.5629 -0.988778 1.50129
95.711 -1.015 1.29475
95.7391 -1.01999 1.32354
95.7545 -1.02272 1.58661
95.8401 -1.03787 1.37049
95.8596 -1.04134 1.58861
95.8614 -1.04164 1.42515
95.8694 -1.04306 1.56489
95.8909 -1.04687 1.43315
96.0237 -1.07038 1.56301
96.115 -1.08655 1.32255
96.1689 -1.09609 1.42267
96.1893 -1.0997 1.4378
96.2071 -1.10284 1.48851
96.2346 -1.10771 1.59578
96.2464 -1.1098 1.3279
96.3169 -1.12228 1.59737
96.4073 -1.13828 1.36479
96.4598 -1.14757 1.486
96.4773 -1.15066 1.5173
96.5997 -1.17231 1.60286
96.6193 -1.17577 1.33195
96.6588 -1.18276 1.60402
96.6788 -1.18629 1.55527
96.6963 -1.18938 1.52123
96.7162 -1.19291 1.30123
96.7592 -1.20051 1.3631
96.8481 -1.21623 1.60773
96.8519 -1.21689 1.5533
96.8837 -1.22252 1.60843
96.9786 -1.23929 1.61031
96.9905 -1.24139 1.61054
97.02 -1.24661 1.29017
97.1061 -1.26181 1.30448
97.2046 -1.27922 1.38913
97.2832 -1.29309 1.29673
97.3518 -1.30521 1.45663
97.4172 -1.31675 1.29233
97.4254 -1.3182 1.41361
97.5026 -1.33182 1.47631
97.5326 -1.33712 1.53659
97.5398 -1.33839 1.39399
97.5811 -1.34568 1.54529
97.6318 -1.35463 1.32025
97.6344 -1.35509 1.46138
97.6777 -1.36273 1.29769
97.7316 -1.37223 1.54032
97.7459 -1.37476 1.41158
97.771 -1.37918 1.474
97.7724 -1.37943 1.54327
98.008 -1.42098 1.61322
98.0142 -1.42206 1.32011
98.0181 -1.42276 1.6131
98.0944 -1.43621 1.34939
98.0985 -1.43694 1.61215
98.1287 -1.44225 1.61179
98.1858 -1.45231 1.35767
98.2893 -1.47054 1.60991
98.3394 -1.47937 1.60933
98.4589 -1.50041 1.35404
98.486 -1.50519 1.55474
98.547 -1.51593 1.35667
98.5732 -1.52055 1.53521
98.5796 -1.52166 1.60658
98.6495 -1.53397 1.60578
98.6562 -1.53515 1.31907
98.664 -1.53653 1.5582
98.7313 -1.54837 1.48045
98.7822 -1.55732 1.53321
98.8549 -1.57011 1.41402
98.8748 -1.57361 1.46527
98.9684 -1.59008 1.60223
98.9969 -1.59509 1.48521
99.0035 -1.59624 1.30278
99.0411 -1.60286 1.3231
99.052 -1.60478 1.40444
99.0579 -1.60581 1.60125
99.1581 -1.62342 1.46323
99.177 -1.62674 1.41916
99.2605 -1.64141 1.30339
99.3329 -1.65414 1.57139
99.3844 -1.66318 1.40293
99.3992 -1.66579 1.30583
99.4545 -1.67549 1.59699
99.4891 -1.68158 1.57452
99.5546 -1.69307 1.32124
99.5632 -1.69458 1.59585
99.6519 -1.71016 1.52534
99.6571 -1.71105 1.30527
99.8778 -1.74978 1.52342
99.8975 -1.75325 1.37366
99.9422 -1.76108 1.32197
100.009 -1.77279 1.35413
100.023 -1.77531 1.50411
100.036 -1.77754 1.59101
100.069 -1.78334 1.58627
100.164 -1.79991 1.58974
100.203 -1.80676 1.589
100.252 -1.81541 1.37879
100.271 -1.81867 1.50879
100.319 -1.82718 1.45575
100.379 -1.83754 1.35388
100.437 -1.84784 1.44013
100.569 -1.87082 1.34059
100.617 -1.87922 1.45407
100.691 -1.89224 1.5991
100.711 -1.89579 1.58446
100.736 -1.90013 1.39801
100.745 -1.9017 1.44545
100.801 -1.91154 1.6014
100.814 -1.91369 1.516
100.857 -1.92134 1.5831
100.947 -1.93704 1.34529
100.977 -1.94227 1.31972
101.056 -1.95599 1.51423
101.08 -1.96014 1.39708
101.195 -1.98036 1.60968
101.222 -1.98507 1.52716
101.246 -1.98914 1.31462
101.282 -1.99546 1.61151
101.37 -2.01092 1.32359
101.45 -2.02488 1.53166
101.478 -2.02972 1.57754
101.502 -2.03383 1.32662
101.579 -2.04734 1.61784
101.641 -2.05817 1.61917
101.642 -2.05835 1.57614
101.643 -2.05848 1.3174
101.649 -2.05954 1.40012
101.832 -2.09146 1.44814
101.84 -2.09287 1.62344
101.872 -2.09834 1.35442
101.878 -2.09939 1.62424
101.893 -2.10214 1.32822
101.946 -2.11122 1.46689
101.978 -2.11678 1.6264
101.99 -2.11896 1.62667
101.993 -2.1194 1.40563
102.055 -2.13027 1.50751
102.142 -2.14549 1.44688
102.238 -2.16208 1.47227
102.248 -2.16394 1.35495
102.312 -2.17507 1.50594
102.322 -2.17674 1.54917
102.334 -2.17878 1.57049
102.447 -2.19848 1.36526
102.473 -2.203 1.39463
102.515 -2.21035 1.56908
102.53 -2.21283 1.55341
102.818 -2.26293 1.37052
102.826 -2.26437 1.39435
102.935 -2.28322 1.34058
103.008 -2.29581 1.63099
103.017 -2.29745 1.63091
103.092 -2.31053 1.63024
103.121 -2.31544 1.63
103.232 -2.33478 1.33021
103.271 -2.34156 1.62869
103.276 -2.34232 1.56353
103.317 -2.3495 1.56974
103.318 -2.34971 1.62829
103.324 -2.35067 1.34518
103.342 -2.3538 1.42818
103.372 -2.35897 1.50019
103.373 -2.35914 1.49377
103.408 -2.36529 1.44277
103.467 -2.37548 1.33635
103.474 -2.3767 1.56217
103.503 -2.38171 1.57366
103.544 -2.38874 1.62639
103.61 -2.4001 1.62584
103.629 -2.40353 1.33382
103.644 -2.40608 1.4989
103.648 -2.40677 1.49911
103.673 -2.41109 1.43394
103.731 -2.4211 1.44199
103.768 -2.42758 1.35869
103.862 -2.44378 1.33881
103.909 -2.45189 1.62341
103.993 -2.46642 1.62274
104.151 -2.49375 1.36003
104.203 -2.50261 1.58854
104.258 -2.51209 1.39458
104.285 -2.51673 1.3925
104.301 -2.51963 1.55692
104.366 -2.53074 1.61985
104.366 -2.53081 1.59206
104.468 -2.54836 1.61908
104.516 -2.55668 1.55566
104.62 -2.57454 1.39499
104.647 -2.57913 1.39821
104.713 -2.59052 1.52025
104.761 -2.59882 1.49436
104.87 -2.61761 1.36487
104.913 -2.62493 1.61585
104.97 -2.63472 1.52546
104.97 -2.63474 1.45725
104.974 -2.63541 1.60526
105.033 -2.64558 1.615
105.044 -2.64752 1.43994
105.047 -2.64804 1.4934
105.114 -2.65949 1.60833
105.215 -2.67686 1.34983
105.254 -2.68358 1.3701
105.287 -2.68922 1.46313
105.378 -2.70486 1.43971
105.408 -2.70997 1.55092
105.446 -2.71654 1.35033
105.548 -2.73408 1.61154
105.61 -2.74472 1.3542
105.625 -2.74735 1.61964
105.638 -2.74953 1.54982
105.686 -2.75767 1.61065
105.694 -2.7591 1.36699
105.741 -2.76719 1.62222
105.843 -2.78455 1.35361
105.958 -2.80437 1.54587
106.074 -2.8242 1.42171
106.082 -2.82555 1.36913
106.085 -2.82608 1.39804
106.155 -2.83793 1.63147
106.196 -2.84496 1.55085
106.218 -2.84879 1.49032
106.245 -2.85345 1.63351
106.27 -2.85772 1.60709
106.425 -2.88413 1.6062
106.426 -2.88428 1.42774
106.455 -2.88935 1.39916
106.517 -2.8999 1.48975
106.525 -2.90117 1.48675
106.558 -2.90678 1.64057
106.591 -2.91251 1.5458
106.623 -2.91791 1.64205
106.734 -2.93693 1.43992
106.776 -2.94402 1.39206
106.826 -2.95261 1.49265
106.832 -2.95359 1.64681
106.837 -2.9544 1.54491
106.871 -2.96029 1.6477
106.976 -2.97817 1.6501
106.989 -2.9804 1.6504
107.077 -2.9953 1.60269
107.079 -2.99556 1.44027
107.103 -2.99979 1.57019
107.153 -3.00822 1.3978
107.186 -3.0139 1.37306
107.248 -3.02444 1.60183
107.32 -3.03658 1.57486
107.431 -3.05555 1.3683
107.579 -3.08058 1.3781
107.643 -3.09146 1.37927
107.739 -3.1078 1.48834
107.809 -3.11957 1.4523
107.829 -3.12298 1.37234
107.849 -3.12638 1.54182
107.951 -3.14363 1.4051
107.966 -3.14626 1.59852
108 -3.15195 1.51613
108.007 -3.15316 1.65618
108.016 -3.15465 1.65613
108.035 -3.15791 1.38219
108.051 -3.1606 1.48821
108.086 -3.16655 1.65573
108.109 -3.17044 1.54119
108.112 -3.17101 1.65558
108.142 -3.17592 1.59281
108.148 -3.17708 1.45852
108.154 -3.178 1.59774
108.253 -3.19475 1.65479
108.285 -3.20013 1.52194
108.297 -3.20216 1.65454
108.328 -3.20744 1.40695
108.336 -3.20877 1.59711
108.475 -3.23228 1.44289
108.507 -3.23764 1.6534
108.568 -3.24797 1.65308
108.645 -3.26106 1.42157
108.829 -3.29196 1.44386
108.847 -3.29505 1.65164
108.925 -3.30825 1.65125
108.935 -3.30993 1.59481
109.014 -3.32322 1.4277
109.067 -3.33203 1.61341
109.139 -3.34413 1.59413
109.141 -3.34447 1.39943
109.178 -3.35068 1.53924
109.238 -3.36078 1.61726
109.273 -3.36672 1.64957
109.321 -3.37476 1.48865
109.368 -3.38274 1.64913
109.388 -3.38601 1.54488
109.418 -3.39107 1.38994
109.452 -3.39671 1.53891
109.481 -3.40159 1.48366
109.529 -3.40969 1.40503
109.61 -3.42326 1.39538
109.644 -3.429 1.48901
109.654 -3.43072 1.55052
109.783 -3.45235 1.6473
109.807 -3.45628 1.48997
109.815 -3.45763 1.39467
109.849 -3.46336 1.41578
109.873 -3.46743 1.63167
109.896 -3.47112 1.64683
109.982 -3.48562 1.59174
110.005 -3.48943 1.39904
110.02 -3.49198 1.63501
110.201 -3.52214 1.59123
110.232 -3.52745 1.41835
110.262 -3.53232 1.449
110.377 -3.55157 1.64495
110.471 -3.56736 1.4528
110.505 -3.57301 1.64448
110.557 -3.58156 1.64733
110.574 -3.58444 1.53829
110.624 -3.59277 1.4506
110.678 -3.60178 1.65013
110.681 -3.60233 1.57255
110.831 -3.62721 1.4592
110.861 -3.63225 1.53831
110.928 -3.64339 1.57791
110.959 -3.6485 1.49146
111.052 -3.66396 1.64264
111.071 -3.66716 1.4284
111.082 -3.66904 1.51522
111.104 -3.67258 1.58955
111.112 -3.67391 1.66019
111.196 -3.68797 1.6422
111.207 -3.68973 1.66241
111.293 -3.70396 1.49234
111.337 -3.71125 1.58923
111.394 -3.72068 1.52152
111.399 -3.72165 1.41483
111.454 -3.73062 1.43445
111.535 -3.7441 1.67006
111.589 -3.75307 1.41508
111.604 -3.75545 1.67167
111.776 -3.78392 1.43001
111.795 -3.78705 1.42016
111.807 -3.78903 1.64052
111.823 -3.79183 1.67683
111.865 -3.79866 1.6778
111.873 -3.80001 1.59869
111.967 -3.81552 1.64014
111.975 -3.81688 1.6804
111.986 -3.81867 1.41942
111.989 -3.81916 1.68072
112.034 -3.82667 1.53918
112.089 -3.83575 1.45829
112.098 -3.83723 1.6037
112.164 -3.84801 1.43327
112.246 -3.86161 1.48516
112.297 -3.87 1.58842
112.334 -3.87604 1.53959
112.46 -3.89672 1.46053
112.544 -3.91067 1.58834
112.594 -3.9189 1.49172
112.606 -3.92078 1.54647
112.639 -3.92625 1.63875
112.649 -3.92787 1.49691
112.815 -3.9551 1.63845
112.9 -3.96914 1.55263
112.956 -3.97818 1.62292
112.97 -3.98057 1.4594
112.993 -3.98431 1.49833
113.006 -3.98652 1.68771
113.015 -3.98785 1.68769
113.079 -3.99846 1.68751
113.104 -4.00244 1.68744
113.158 -4.01141 1.62751
113.233 -4.02363 1.68708
113.274 -4.03024 1.68697
113.346 -4.04202 1.4658
113.369 -4.04589 1.44252
113.467 -4.0619 1.68647
113.524 -4.07112 1.68633
113.548 -4.07504 1.63747
113.556 -4.07631 1.54209
113.56 -4.07704 1.58856
113.575 -4.07947 1.43804
113.725 -4.10393 1.44762
113.738 -4.10613 1.63729
113.761 -4.10985 1.44835
113.781 -4.11313 1.68573
113.821 -4.11953 1.58876
113.854 -4.12491 1.68557
113.867 -4.12704 1.54292
113.922 -4.13609 1.64491
113.954 -4.14127 1.47076
113.962 -4.14255 1.51809
113.972 -4.14422 1.44299
114.043 -4.15573 1.57688
114.101 -4.16518 1.64901
114.117 -4.16775 1.45153
114.175 -4.17708 1.6849
114.263 -4.19138 1.68474
114.297 -4.19703 1.52469
114.32 -4.20061 1.58282
114.331 -4.20251 1.47363
114.388 -4.21167 1.50509
114.53 -4.23475 1.63685
114.646 -4.25349 1.68408
114.735 -4.26794 1.63682
114.741 -4.26885 1.50706
114.749 -4.27024 1.68392
114.767 -4.27306 1.66435
114.831 -4.28336 1.49188
114.889 -4.29282 1.59014
114.921 -4.29789 1.66791
115.134 -4.33231 1.54716
115.163 -4.33694 1.59064
115.194 -4.34203 1.68334
115.197 -4.34253 1.4985
115.313 -4.36116 1.68321
115.321 -4.36238 1.4725
115.386 -4.37288 1.60601
115.456 -4.38418 1.54844
115.483 -4.3885 1.681
115.561 -4.40108 1.46388
115.584 -4.4047 1.63705
115.611 -4.40896 1.68397
115.611 -4.40898 1.55102
115.642 -4.41409 1.61165
115.692 -4.42202 1.46838
115.708 -4.42463 1.47872
115.803 -4.43986 1.6372
115.818 -4.44231 1.68278
115.851 -4.44758 1.48631
115.932 -4.46042 1.55756
115.952 -4.46374 1.6827
115.958 -4.4647 1.46936
116.066 -4.48193 1.69464
116.087 -4.48529 1.47289
116.166 -4.49793 1.69699
116.171 -4.49867 1.51602
116.234 -4.50882 1.48978
116.282 -4.5164 1.59332
116.511 -4.55293 1.7051
116.517 -4.55392 1.68252
116.532 -4.55635 1.51854
116.568 -4.56198 1.59416
116.583 -4.56441 1.7068
116.626 -4.57131 1.63344
116.645 -4.57425 1.52526
116.665 -4.57756 1.68251
116.707 -4.58416 1.63821
116.766 -4.59357 1.5545
116.814 -4.60121 1.71226
116.858 -4.60811 1.71329
116.861 -4.60867 1.63869
116.94 -4.62113 1.63858
116.974 -4.62655 1.71604
116.988 -4.62886 1.71638
117.001 -4.63089 1.532
117.099 -4.64635 1.55624
117.183 -4.65976 1.58344
117.247 -4.66978 1.50424
117.288 -4.67637 1.68265
117.451 -4.70211 1.68273
117.488 -4.70794 1.58982
117.542 -4.7165 1.49216
117.628 -4.73005 1.51075
117.671 -4.73683 1.49199
117.735 -4.74684 1.59823
117.756 -4.75016 1.65879
117.776 -4.75337 1.5048
117.897 -4.77237 1.64049
117.937 -4.77873 1.49807
117.968 -4.78351 1.66358
117.994 -4.78766 1.52967
118.006 -4.78954 1.72432
118.013 -4.79069 1.72431
118.032 -4.79367 1.59943
118.068 -4.79928 1.49702
118.072 -4.79995 1.7243
118.094 -4.80342 1.7243
118.131 -4.80913 1.6833
118.143 -4.811 1.64109
118.164 -4.81435 1.50883
118.212 -4.82188 1.72428
118.249 -4.82765 1.72428
118.307 -4.83687 1.6835
118.363 -4.84559 1.53272
118.404 -4.85198 1.559
118.425 -4.85525 1.72428
118.449 -4.85896 1.56415
118.476 -4.86328 1.72429
118.671 -4.89382 1.61487
118.71 -4.8999 1.72433
118.748 -4.90584 1.56575
118.767 -4.90867 1.68174
118.776 -4.91017 1.72435
118.791 -4.91244 1.56637
118.954 -4.93787 1.68601
118.958 -4.93853 1.621
119.042 -4.95165 1.68458
119.068 -4.95565 1.72447
119.14 -4.96677 1.5372
119.148 -4.96811 1.72451
119.151 -4.96852 1.64401
119.233 -4.98127 1.68492
119.245 -4.98314 1.60497
119.409 -5.00863 1.64487
119.497 -5.02226 1.72476
119.511 -5.0244 1.52242
119.513 -5.02481 1.54389
119.554 -5.03102 1.60655
119.591 -5.03686 1.72484
119.651 -5.04617 1.70199
119.657 -5.04701 1.51809
119.724 -5.05732 1.52599
119.813 -5.07109 1.70569
119.853 -5.07739 1.54596
119.903 -5.08496 1.52867
119.996 -5.09944 1.72525
120.021 -5.1033 1.6866
120.054 -5.10837 1.52357
120.066 -5.11014 1.64487
120.1 -5.11537 1.59258
120.105 -5.11612 1.72538
120.115 -5.11777 1.53053
120.178 -5.12736 1.57614
120.225 -5.13467 1.6871
120.229 -5.13532 1.54952
120.333 -5.1512 1.65066
120.403 -5.16205 1.7193
120.43 -5.16622 1.59924
120.467 -5.17177 1.64888
120.529 -5.1813 1.57881
120.537 -5.18259 1.72239
120.565 -5.18686 1.72602
120.687 -5.20554 1.72621
120.737 -5.2132 1.65003
120.81 -5.2243 1.61361
120.991 -5.25208 1.57087
121.016 -5.25583 1.73346
121.066 -5.26344 1.68947
121.121 -5.2719 1.7359
121.129 -5.27302 1.61557
121.202 -5.28415 1.72713
121.282 -5.29643 1.69015
121.337 -5.30476 1.7274
121.356 -5.30763 1.57764
121.357 -5.30782 1.67304
121.46 -5.32346 1.55417
121.484 -5.3271 1.74432
121.56 -5.33863 1.74608
121.603 -5.34504 1.67842
121.643 -5.35123 1.54629
121.689 -5.35813 1.54962
121.723 -5.36328 1.62551
121.745 -5.36663 1.56473
121.804 -5.37557 1.75175
121.842 -5.38125 1.6552
121.847 -5.38209 1.56066
121.85 -5.3825 1.75281
121.905 -5.39089 1.72867
121.95 -5.39761 1.59041
121.972 -5.40101 1.75566
121.988 -5.40332 1.75602
122.038 -5.41092 1.63198
122.04 -5.41124 1.55214
122.054 -5.41334 1.72903
122.084 -5.41781 1.55461
122.124 -5.42381 1.65664
122.127 -5.4243 1.56876
122.174 -5.43138 1.69329
122.309 -5.45178 1.59353
122.403 -5.46585 1.69418
122.426 -5.46928 1.62417
122.537 -5.48599 1.69901
122.674 -5.50663 1.73071
122.755 -5.51864 1.62652
122.759 -5.51922 1.70392
122.794 -5.52449 1.60472
122.836 -5.53081 1.73118
123.005 -5.5561 1.76459
123.012 -5.55708 1.76461
123.064 -5.5649 1.76472
123.084 -5.56783 1.76476
123.147 -5.57732 1.61147
123.189 -5.58344 1.76498
123.221 -5.58831 1.76506
123.264 -5.59466 1.65733
123.273 -5.59606 1.66302
123.343 -5.60641 1.69815
123.378 -5.61164 1.76541
123.383 -5.61238 1.58692
123.424 -5.61843 1.76552
123.507 -5.63086 1.73332
123.561 -5.63887 1.66352
123.566 -5.63958 1.66477
123.584 -5.6422 1.69925
123.595 -5.6439 1.72248
123.624 -5.64819 1.57617
123.632 -5.64939 1.76601
123.664 -5.65413 1.58578
123.667 -5.65453 1.57537
123.682 -5.65668 1.73392
123.691 -5.65807 1.76616
123.762 -5.66856 1.60687
123.764 -5.66884 1.59355
123.792 -5.67299 1.72684
123.951 -5.69651 1.76682
124.019 -5.7066 1.5823
124.022 -5.70704 1.76701
124.051 -5.71131 1.59025
124.064 -5.71316 1.58074
124.09 -5.71703 1.63666
124.129 -5.72273 1.61041
124.333 -5.75281 1.76788
124.403 -5.76306 1.73659
124.417 -5.76515 1.76812
124.428 -5.76682 1.63938
124.524 -5.78087 1.74315
124.537 -5.78283 1.63828
124.571 -5.78778 1.70412
124.589 -5.7904 1.73732
124.693 -5.8057 1.74693
124.713 -5.80852 1.68761
124.759 -5.81528 1.67239
124.778 -5.81804 1.7692
124.824 -5.82474 1.70545
124.874 -5.83214 1.76951
124.878 -5.83271 1.64491
124.991 -5.8491 1.69345
125.062 -5.85957 1.67445
125.271 -5.88994 1.62019
125.285 -5.89194 1.77085
125.315 -5.89631 1.76081
125.359 -5.90266 1.74057
125.394 -5.90773 1.77123
125.456 -5.91677 1.76396
125.557 -5.93141 1.74146
125.593 -5.93662 1.60728
125.607 -5.93866 1.60888
125.61 -5.93904 1.62539
125.644 -5.94399 1.62687
125.652 -5.94523 1.60289
125.799 -5.96649 1.65101
125.853 -5.97417 1.77287
125.856 -5.9747 1.71126
125.961 -5.98974 1.77524
125.973 -5.99159 1.77332
125.983 -5.99298 1.62933
125.984 -5.99317 1.61362
125.998 -5.99511 1.61373
126.05 -6.00257 1.60858
126.059 -6.00393 1.71599
126.072 -6.00574 1.77773
126.12 -6.01268 1.71283
126.146 -6.01649 1.6541
126.213 -6.02599 1.67107
126.296 -6.03797 1.68332
126.315 -6.04073 1.7214
126.373 -6.04906 1.74535
126.455 -6.06074 1.78629
126.48 -6.06439 1.7753
126.535 -6.07222 1.78809
126.539 -6.07271 1.6775
126.583 -6.0791 1.7464
126.609 -6.08284 1.68569
126.613 -6.08336 1.77584
126.793 -6.10902 1.79385
126.841 -6.11592 1.79494
126.971 -6.13436 1.79783
126.987 -6.13667 1.7982
127.116 -6.15495 1.65351
127.167 -6.16221 1.77818
127.196 -6.16638 1.7196
127.293 -6.18007 1.7421
127.311 -6.18265 1.77882
127.445 -6.20163 1.75096
127.471 -6.20521 1.72142
127.479 -6.20635 1.66014
127.49 -6.2079 1.64581
127.525 -6.21291 1.74703
127.542 -6.21528 1.6392
127.551 -6.21659 1.66715
127.568 -6.21901 1.63375
127.639 -6.22899 1.63181
127.666 -6.23283 1.75219
127.809 -6.25293 1.70268
127.869 -6.26138 1.6501
127.882 -6.26318 1.69579
127.906 -6.26659 1.67059
127.911 -6.26722 1.78158
127.929 -6.26973 1.64564
127.962 -6.27447 1.63891
128.005 -6.28038 1.80712
128.01 -6.28117 1.80714
128.036 -6.2848 1.63773
128.055 -6.2875 1.80732
128.066 -6.28904 1.78232
128.072 -6.28987 1.80739
128.118 -6.29629 1.70882
128.162 -6.30251 1.80776
128.191 -6.30645 1.80787
128.205 -6.30844 1.69847
128.326 -6.32533 1.80843
128.365 -6.33083 1.80859
128.403 -6.33617 1.76566
128.545 -6.35588 1.80935
128.572 -6.35973 1.75746
128.589 -6.36199 1.72918
128.595 -6.3629 1.80956
128.61 -6.36493 1.77005
128.711 -6.37896 1.78552
128.804 -6.39196 1.75887
128.819 -6.39401 1.81053
128.873 -6.40152 1.73124
128.877 -6.40207 1.78638
128.881 -6.40254 1.8108
128.908 -6.40627 1.68643
129.148 -6.43957 1.812
129.221 -6.44956 1.81233
129.259 -6.4548 1.69292
129.316 -6.46269 1.7327
129.342 -6.46626 1.68497
129.381 -6.47158 1.7864
129.398 -6.47399 1.6679
129.463 -6.48298 1.67148
129.514 -6.48995 1.70976
129.532 -6.49237 1.81377
129.544 -6.49398 1.66009
129.559 -6.49612 1.79019
129.565 -6.49695 1.79005
129.606 -6.50249 1.73848
129.615 -6.50378 1.81416
129.621 -6.5046 1.66174
129.705 -6.51605 1.68872
129.743 -6.52126 1.79104
129.753 -6.52268 1.76487
129.783 -6.52678 1.6725
129.844 -6.5351 1.67794
129.846 -6.53541 1.71272
129.94 -6.54822 1.6655
129.969 -6.55217 1.81586
129.995 -6.55579 1.76647
130.016 -6.55864 1.66781
130.031 -6.56071 1.73997
130.062 -6.56495 1.81632
130.215 -6.5857 1.80409
130.326 -6.60075 1.74228
130.364 -6.60593 1.80724
130.458 -6.61872 1.81831
130.473 -6.62069 1.79521
130.562 -6.63281 1.81884
130.637 -6.64283 1.71851
130.661 -6.64609 1.79632
130.722 -6.65435 1.76078
130.898 -6.67806 1.81854
130.974 -6.68828 1.7248
130.985 -6.68977 1.77322
130.99 -6.69044 1.76614
130.999 -6.69173 1.82113
131.015 -6.69388 1.82103
131.114 -6.70708 1.82174
131.169 -6.71444 1.70431
131.19 -6.7173 1.72514
131.237 -6.72362 1.775
131.331 -6.73617 1.69144
131.349 -6.73857 1.70369
131.421 -6.74825 1.8296
131.432 -6.74966 1.80103
131.507 -6.7596 1.8314
131.522 -6.76167 1.75197
131.527 -6.76238 1.68756
131.53 -6.76276 1.72838
131.538 -6.7638 1.70835
131.591 -6.77087 1.69229
131.591 -6.7709 1.82434
131.63 -6.77603 1.80227
131.716 -6.78744 1.82503
131.72 -6.78803 1.6963
131.721 -6.78814 1.71009
131.78 -6.79597 1.83716
131.826 -6.80206 1.75452
131.831 -6.8028 1.83825
131.925 -6.81517 1.69316
131.969 -6.82103 1.84115
131.983 -6.82291 1.69844
131.986 -6.82331 1.84151
132.015 -6.82711 1.7866
132.233 -6.85588 1.82798
132.259 -6.85933 1.79146
132.266 -6.86029 1.78251
132.292 -6.86361 1.74938
132.367 -6.87354 1.82876
132.441 -6.88329 1.80752
132.528 -6.89474 1.78448
132.613 -6.90579 1.75537
132.649 -6.91053 1.8089
132.907 -6.94427 1.74185
132.923 -6.94631 1.83206
133.004 -6.95686 1.8505
133.008 -6.95746 1.85052
133.028 -6.96005 1.725
133.045 -6.96225 1.85072
133.059 -6.96402 1.76513
133.059 -6.96405 1.8508
133.066 -6.96501 1.83293
133.132 -6.97361 1.85121
133.155 -6.97659 1.85133
133.183 -6.98022 1.80986
133.189 -6.98096 1.73543
133.255 -6.98953 1.74534
133.266 -6.99088 1.85195
133.284 -6.99331 1.71616
133.298 -6.99504 1.85212
133.371 -7.00458 1.7679
133.401 -7.00843 1.81418
133.404 -7.00877 1.72928
133.444 -7.01399 1.85295
133.485 -7.01931 1.85318
133.498 -7.02102 1.8147
133.514 -7.02307 1.71583
133.542 -7.02667 1.72306
133.551 -7.02777 1.74169
133.595 -7.03352 1.79273
133.66 -7.0418 1.8366
133.668 -7.04285 1.85422
133.677 -7.04403 1.72122
133.716 -7.049 1.81622
133.718 -7.0493 1.8545
133.813 -7.06147 1.83756
133.861 -7.06767 1.77864
133.867 -7.06842 1.79488
133.912 -7.07419 1.72155
133.929 -7.07648 1.72921
133.936 -7.07733 1.85576
133.995 -7.08489 1.85611
134.163 -7.10639 1.78428
134.215 -7.11303 1.83032
134.249 -7.11728 1.85759
134.316 -7.12591 1.85799
134.404 -7.1371 1.83405
134.442 -7.14194 1.84161
134.602 -7.16225 1.82258
134.604 -7.16249 1.84267
134.605 -7.16253 1.85971
134.639 -7.1669 1.77938
134.662 -7.16987 1.75976
134.681 -7.1722 1.86017
134.828 -7.19086 1.82424
134.917 -7.20205 1.74684
134.96 -7.20746 1.78236
134.97 -7.2087 1.80385
134.973 -7.20912 1.76631
135.003 -7.21289 1.86214
135.018 -7.21474 1.76347
135.088 -7.22356 1.86266
135.099 -7.22497 1.84775
135.25 -7.24391 1.80618
135.253 -7.24431 1.74179
135.257 -7.24481 1.85086
135.269 -7.24631 1.84711
135.298 -7.24993 1.75132
135.322 -7.25295 1.77235
135.332 -7.25413 1.80598
135.44 -7.26765 1.84827
135.444 -7.26815 1.86487
135.466 -7.27091 1.75369
135.498 -7.27493 1.74457
135.537 -7.27976 1.86546
135.613 -7.28924 1.81119
135.649 -7.29368 1.747
135.751 -7.30638 1.83114
135.825 -7.31555 1.86199
135.847 -7.31827 1.75976
135.894 -7.32415 1.75034
135.926 -7.32806 1.86792
135.95 -7.33107 1.86444
135.986 -7.3355 1.83294
136.027 -7.34057 1.86857
136.139 -7.35446 1.8531
136.261 -7.36942 1.79464
136.318 -7.3765 1.85436
136.382 -7.3844 1.87289
136.388 -7.3851 1.81584
136.447 -7.39236 1.8713
136.454 -7.39314 1.77871
136.473 -7.39553 1.87465
136.556 -7.40573 1.87202
136.59 -7.40981 1.79781
136.677 -7.42045 1.81833
136.69 -7.42205 1.79595
136.691 -7.4222 1.83109
136.765 -7.43121 1.88033
136.816 -7.43743 1.78261
136.82 -7.43791 1.8814
136.832 -7.43941 1.7696
136.942 -7.45279 1.84038
136.948 -7.45354 1.83582
136.967 -7.45578 1.88425
136.985 -7.45802 1.88461
137.008 -7.46079 1.87501
137.024 -7.46273 1.8017
137.05 -7.46592 1.85959
137.125 -7.47495 1.87579
137.186 -7.4823 1.84231
137.218 -7.48623 1.77425
137.234 -7.4881 1.76803
137.237 -7.48857 1.86095
137.353 -7.50253 1.78379
137.472 -7.51689 1.77342
137.607 -7.53306 1.87905
137.63 -7.5359 1.77333
137.725 -7.54725 1.78972
137.731 -7.54794 1.8799
137.848 -7.56194 1.82863
137.865 -7.564 1.77918
137.922 -7.57073 1.81081
137.925 -7.57115 1.8537
138.001 -7.58022 1.86656
138.003 -7.5804 1.89339
138.006 -7.5808 1.89341
138.033 -7.58401 1.89359
138.043 -7.58522 1.89366
138.097 -7.59163 1.89401
138.114 -7.59363 1.89412
138.145 -7.5973 1.83128
138.156 -7.59859 1.85789
138.175 -7.60087 1.85027
138.195 -7.60322 1.89465
138.196 -7.60337 1.86802
138.218 -7.60601 1.8948
138.242 -7.60884 1.88343
138.258 -7.61077 1.81414
138.278 -7.61313 1.79854
138.326 -7.61873 1.89551
138.327 -7.61886 1.82403
138.356 -7.6223 1.89571
138.373 -7.62439 1.88435
138.426 -7.63062 1.85232
138.489 -7.63809 1.8966
138.526 -7.64242 1.89684
138.643 -7.65621 1.82943
138.647 -7.65665 1.8026
138.686 -7.66122 1.89791
138.729 -7.66629 1.8982
138.77 -7.6711 1.79306
138.913 -7.68782 1.88815
138.914 -7.68803 1.89944
138.964 -7.69382 1.89978
138.99 -7.69686 1.87401
139.02 -7.70035 1.87356
139.051 -7.70397 1.88913
139.16 -7.71667 1.79782
139.175 -7.71839 1.9012
139.192 -7.72043 1.87556
139.193 -7.72054 1.81302
139.22 -7.72363 1.7946
139.221 -7.72377 1.87719
139.23 -7.72488 1.90158
139.348 -7.73849 1.84216
139.429 -7.74791 1.80206
139.447 -7.74996 1.86077
139.466 -7.75218 1.90318
139.528 -7.75933 1.90361
139.554 -7.76242 1.81874
139.617 -7.76966 1.79992
139.617 -7.76966 1.8932
139.62 -7.76996 1.82776
139.652 -7.7737 1.84494
139.705 -7.77985 1.86293
139.762 -7.78634 1.89425
139.787 -7.78925 1.90539
139.817 -7.79271 1.80773
139.855 -7.79704 1.90586
139.869 -7.7987 1.85023
139.962 -7.80925 1.89049
139.964 -7.80949 1.83123
140.015 -7.81535 1.88192
140.13 -7.82855 1.8935
140.133 -7.8289 1.81908
140.138 -7.82944 1.90782
140.166 -7.83256 1.85522
140.212 -7.83784 1.90834
140.224 -7.83923 1.88356
140.354 -7.854 1.89857
140.505 -7.87114 1.89968
140.508 -7.87146 1.82326
140.518 -7.87259 1.91048
140.597 -7.88155 1.91104
140.726 -7.89613 1.81697
140.737 -7.89737 1.9043
140.756 -7.89944 1.87183
140.871 -7.91247 1.90668
140.885 -7.91398 1.85634
140.925 -7.9185 1.91335
140.974 -7.92401 1.84106
141.01 -7.928 1.91395
141.022 -7.92933 1.8741
141.074 -7.93519 1.89027
141.119 -7.94026 1.82179
141.122 -7.9405 1.90426
141.197 -7.94888 1.85925
141.206 -7.9499 1.82119
141.279 -7.95802 1.90543
141.29 -7.95927 1.89198
141.304 -7.96079 1.87428
141.322 -7.96288 1.84649
141.336 -7.96435 1.91487
141.353 -7.96627 1.84536
141.359 -7.96698 1.91644
141.359 -7.96699 1.83015
141.433 -7.97518 1.91659
141.449 -7.97697 1.91709
141.576 -7.99102 1.8788
141.603 -7.99396 1.82648
141.703 -8.0051 1.84895
141.741 -8.00929 1.83567
141.747 -8.00989 1.92209
141.806 -8.0164 1.92313
141.819 -8.01783 1.91975
141.914 -8.02826 1.92043
141.918 -8.02876 1.91025
141.964 -8.03379 1.92589
141.984 -8.03597 1.92624
142.016 -8.03951 1.84013
142.081 -8.0466 1.91148
142.1 -8.04866 1.8834
142.166 -8.05585 1.89901
142.303 -8.07082 1.92325
142.373 -8.07842 1.88577
142.388 -8.08003 1.90081
142.396 -8.08094 1.84438
142.403 -8.08165 1.92398
142.458 -8.08765 1.87108
142.613 -8.10446 1.89591
142.684 -8.11207 1.86758
142.697 -8.11355 1.84109
142.743 -8.11843 1.91653
142.777 -8.1221 1.87409
142.81 -8.12572 1.92696
142.859 -8.13092 1.89993
142.911 -8.1365 1.91781
142.915 -8.13691 1.92772
143.002 -8.14624 1.93457
143.003 -8.14645 1.93459
143.016 -8.14776 1.87267
143.018 -8.14806 1.93469
143.024 -8.14866 1.93473
143.054 -8.15188 1.93495
143.064 -8.15289 1.93502
143.093 -8.15603 1.84592
143.109 -8.1577 1.93534
143.119 -8.1588 1.86347
143.122 -8.1591 1.93543
143.181 -8.16548 1.93586
143.186 -8.16594 1.84751
143.198 -8.16727 1.93598
143.254 -8.1732 1.85738
143.273 -8.1752 1.93651
143.288 -8.17682 1.90812
143.293 -8.17737 1.93666
143.34 -8.18231 1.93085
143.382 -8.18681 1.9373
143.406 -8.18936 1.93747
143.448 -8.19381 1.93165
143.476 -8.19678 1.86714
143.478 -8.19699 1.89541
143.509 -8.20026 1.93821
143.516 -8.20101 1.90999
143.536 -8.20317 1.93841
143.58 -8.20784 1.85272
143.592 -8.20911 1.92306
143.627 -8.21282 1.8627
143.653 -8.2155 1.93925
143.684 -8.21876 1.93947
143.757 -8.22649 1.89786
143.765 -8.22734 1.9244
143.782 -8.22907 1.91492
143.814 -8.23246 1.94041
143.848 -8.23605 1.94066
143.889 -8.24034 1.93492
143.925 -8.24408 1.86149
143.991 -8.25107 1.9417
143.997 -8.25165 1.91838
144.001 -8.2521 1.93575
144.029 -8.25498 1.94197
144.065 -8.25877 1.88628
144.185 -8.27124 1.9431
144.225 -8.27546 1.94339
144.306 -8.28391 1.8923
144.309 -8.28418 1.86578
144.39 -8.29263 1.88937
144.393 -8.2929 1.94461
144.436 -8.2974 1.94492
144.438 -8.29758 1.91756
144.457 -8.29956 1.93915
144.466 -8.30042 1.92984
144.573 -8.31153 1.94001
144.616 -8.31594 1.94623
144.619 -8.31627 1.89701
144.643 -8.31873 1.93122
144.662 -8.32071 1.94657
144.671 -8.32167 1.91948
144.679 -8.32241 1.86516
144.792 -8.33409 1.9311
144.853 -8.34027 1.94796
144.887 -8.34379 1.9078
144.902 -8.34529 1.94832
144.916 -8.34674 1.88193
144.974 -8.35271 1.93398
145.043 -8.35972 1.94353
145.076 -8.36307 1.86994
145.101 -8.36566 1.88347
145.102 -8.36579 1.94978
145.152 -8.37082 1.87329
145.154 -8.37103 1.95016
145.162 -8.37185 1.94442
145.172 -8.37291 1.91031
145.279 -8.3837 1.88565
145.36 -8.39197 1.93683
145.364 -8.39239 1.9517
145.418 -8.39783 1.9521
145.464 -8.40243 1.88852
145.541 -8.41027 1.93825
145.543 -8.41038 1.87836
145.615 -8.41762 1.92726
145.629 -8.41909 1.94431
145.638 -8.41995 1.95371
145.644 -8.42057 1.94805
145.694 -8.42556 1.95412
145.704 -8.42661 1.90182
145.766 -8.43279 1.94897
145.774 -8.43365 1.94658
145.826 -8.43881 1.91498
145.853 -8.4415 1.92923
145.855 -8.44171 1.88295
145.921 -8.44835 1.95579
145.979 -8.45412 1.95622
146.036 -8.45972 1.90495
146.116 -8.46769 1.91925
146.214 -8.47748 1.95795
146.243 -8.48033 1.88724
146.258 -8.48183 1.95268
146.274 -8.48335 1.94399
146.274 -8.48338 1.95839
146.277 -8.48368 1.95441
146.325 -8.48843 1.92047
146.383 -8.49411 1.95362
146.383 -8.49413 1.95605
146.459 -8.50158 1.94544
146.516 -8.5072 1.96017
146.577 -8.51321 1.96062
146.616 -8.51704 1.92304
146.665 -8.52182 1.88893
146.724 -8.5276 1.96131
146.741 -8.52928 1.90058
146.789 -8.53389 1.9623
146.815 -8.53643 1.93719
146.825 -8.5374 1.96245
146.885 -8.54325 1.95741
146.887 -8.54348 1.96291
146.888 -8.54354 1.90812
146.961 -8.55066 1.96494
146.983 -8.55276 1.96527
147.011 -8.55553 1.95837
147.057 -8.55999 1.9392
147.063 -8.5605 1.89363
147.095 -8.56366 1.89824
147.11 -8.56507 1.90431
147.139 -8.56793 1.96477
147.203 -8.57407 1.96524
147.204 -8.57419 1.9513
147.224 -8.57608 1.93537
147.237 -8.5773 1.91286
147.373 -8.59044 1.91757
147.392 -8.59226 1.95277
147.459 -8.59868 1.96713
147.48 -8.60071 1.90311
147.487 -8.60137 1.93916
147.521 -8.60456 1.96222
147.524 -8.60484 1.96761
147.649 -8.61679 1.96319
147.71 -8.62266 1.92074
147.782 -8.62951 1.96952
147.791 -8.63029 1.93335
147.804 -8.63158 1.90431
147.847 -8.63567 1.97
148.036 -8.65348 1.94728
148.087 -8.65827 1.93594
148.108 -8.66028 1.97192
148.149 -8.66409 1.95871
148.164 -8.66551 1.96708
148.173 -8.66642 1.97241
148.196 -8.66854 1.90855
148.283 -8.67664 1.94931
148.293 -8.67763 1.96806
148.339 -8.68193 1.9602
148.435 -8.69087 1.97434
148.481 -8.69515 1.95328
148.5 -8.69695 1.97482
148.594 -8.70563 1.91925
148.599 -8.70608 1.93109
148.651 -8.71094 1.91217
148.714 -8.71674 1.95655
148.761 -8.72114 1.97674
148.812 -8.72582 1.97197
148.826 -8.72715 1.97722
148.93 -8.73669 1.93546
148.942 -8.73779 1.97295
148.967 -8.74009 1.92297
149.006 -8.74364 1.92212
149.047 -8.74745 1.91673
149.07 -8.74956 1.93341
149.086 -8.75097 1.97914
149.104 -8.75267 1.96619
149.15 -8.75687 1.97961
149.276 -8.76829 1.95746
149.281 -8.76876 1.94634
149.297 -8.7702 1.96769
149.383 -8.77803 1.92674
149.407 -8.78023 1.9815
149.413 -8.78076 1.93658
149.463 -8.78525 1.97687
149.471 -8.786 1.98197
149.526 -8.79093 1.9595
149.576 -8.79551 1.96852
149.582 -8.796 1.94894
149.593 -8.79701 1.97785
149.724 -8.80878 1.98383
149.769 -8.81285 1.92535
149.774 -8.8133 1.97124
149.787 -8.8144 1.98429
150.034 -8.83652 1.9861
150.069 -8.83955 1.97369
150.096 -8.84196 1.98655
150.113 -8.84354 1.98175
150.164 -8.84801 1.92951
150.216 -8.85259 1.95215
150.243 -8.85504 1.98272
150.262 -8.85669 1.97519
150.337 -8.86332 1.98832
150.397 -8.86856 1.98875
150.471 -8.87505 1.93777
150.49 -8.87673 1.98096
150.526 -8.87991 1.95611
150.531 -8.88035 1.96767
150.629 -8.88895 1.93463
150.631 -8.88906 1.99046
150.649 -8.89064 1.9831
150.688 -8.89408 1.99088
150.761 -8.90044 1.98659
150.784 -8.90239 1.96971
150.794 -8.90326 1.95933
150.794 -8.9033 1.94921
150.849 -8.90804 1.94144
150.871 -8.90999 1.94466
150.89 -8.91163 1.98755
150.913 -8.91364 1.99252
150.969 -8.91841 1.99292
151.023 -8.92315 1.939
151.037 -8.92436 1.98117
151.099 -8.92963 1.96193
151.142 -8.93334 1.95236
151.184 -8.93695 1.99449
151.201 -8.93845 1.99048
151.232 -8.94104 1.98266
151.236 -8.94145 1.99487
151.238 -8.94156 1.94899
151.318 -8.94843 1.99202
151.403 -8.9557 1.99135
151.441 -8.95889 1.99635
151.49 -8.96311 1.99671
151.531 -8.96654 1.99229
151.682 -8.97937 1.99809
151.695 -8.98042 1.99697
151.719 -8.98244 1.97107
151.729 -8.98328 1.99843
151.746 -8.98477 1.94588
151.766 -8.98643 1.9979
151.799 -8.9892 1.97784
151.907 -8.9983 1.99971
151.95 -9.00189 2.00002
151.957 -9.00246 2.00039
151.981 -9.00446 2.0007
152.004 -9.00636 1.97459
152.008 -9.00672 1.98858
152.036 -9.00909 1.99601
152.054 -9.01054 1.97986
152.114 -9.01559 2.0012
152.143 -9.01796 1.94991
152.153 -9.01885 2.00148
152.161 -9.01953 1.99693
152.202 -9.02287 1.99005
152.302 -9.03118 2.00255
152.326 -9.0332 1.97225
152.337 -9.03409 2.0028
152.37 -9.03681 1.95598
152.469 -9.04499 2.00375
152.5 -9.04754 2.00397
152.542 -9.05098 1.96484
152.592 -9.05508 1.95609
152.615 -9.05698 2.00479
152.635 -9.05859 1.97481
152.642 -9.05915 2.00498
152.657 -9.06038 2.00055
152.677 -9.062 1.96565
152.739 -9.06708 2.00567
152.753 -9.06818 1.95957
152.761 -9.06887 2.00583
152.779 -9.07037 2.00144
152.839 -9.07525 2.00639
152.857 -9.07665 2.00651
152.895 -9.07974 1.96794
152.916 -9.08146 2.00693
152.928 -9.08247 2.00702
152.968 -9.08569 2.0073
152.976 -9.08629 2.00735
152.976 -9.0863 1.99587
152.982 -9.08682 1.96024
152.996 -9.0879 2.00749
152.998 -9.08811 2.00751
153.029 -9.09062 1.96965
153.075 -9.09436 1.9879
153.084 -9.09507 1.98769
153.169 -9.10185 1.99731
153.262 -9.10936 2.00493
153.332 -9.11491 1.98989
153.339 -9.11548 1.99072
153.381 -9.11885 2.00579
153.731 -9.14658 1.9657
153.848 -9.1558 2.00913
153.876 -9.15803 1.98498
153.937 -9.16275 2.003
153.962 -9.16477 2.00995
154.128 -9.17764 2.00441
154.128 -9.17767 1.96956
154.188 -9.18234 1.98749
154.287 -9.18999 2.00183
154.29 -9.19021 1.9737
154.313 -9.19199 1.98016
154.357 -9.19538 1.99778
154.404 -9.19901 1.98488
154.411 -9.19951 2.01313
154.506 -9.20682 2.00435
154.52 -9.20791 2.0139
154.53 -9.20863 1.97634
154.614 -9.21505 1.99973
154.67 -9.21934 1.98318
154.676 -9.21983 1.97718
154.738 -9.22456 1.9885
154.886 -9.23574 2.00992
154.913 -9.23777 1.98022
154.947 -9.24031 2.0169
155.05 -9.2481 2.01762
155.074 -9.2499 2.01128
155.3 -9.26681 2.01337
155.441 -9.27722 1.99742
155.451 -9.27802 2.02041
155.478 -9.27997 2.01535
155.548 -9.28518 2.02108
155.639 -9.29184 2.0074
155.718 -9.2976 1.98461
155.755 -9.30033 1.99986
155.818 -9.30496 2.01659
155.895 -9.31054 2.00929
155.922 -9.31248 2.02364
156.002 -9.31833 2.01789
156.011 -9.31896 2.02425
156.031 -9.32043 2.00216
156.097 -9.3252 2.02219
156.105 -9.32572 1.99504
156.115 -9.32645 1.98827
156.228 -9.3346 1.99078
156.229 -9.33464 2.02362
156.343 -9.3428 2.00537
156.353 -9.34353 2.02658
156.429 -9.34894 1.99518
156.434 -9.34932 2.02713
156.465 -9.35154 1.99796
156.618 -9.36235 1.99411
156.654 -9.36489 2.02821
156.728 -9.37012 2.02295
156.734 -9.37058 2.02908
156.741 -9.37106 2.0292
156.803 -9.37536 1.99876
156.814 -9.37613 2.02968
156.907 -9.38264 2.02418
156.916 -9.38331 2.0167
156.951 -9.38574 2.03139
156.978 -9.38763 2.03167
157.016 -9.39025 2.00947
157.083 -9.39493 2.03148
157.146 -9.39926 2.03189
157.171 -9.40097 2.01852
157.332 -9.41207 2.01183
157.375 -9.41506 2.03341
157.427 -9.41862 2.03376
157.532 -9.42576 2.01733
157.608 -9.43093 2.02896
157.614 -9.43134 2.03498
157.656 -9.43413 2.03525
157.701 -9.43719 2.00243
157.78 -9.44254 2.03012
157.798 -9.44372 2.03618
157.814 -9.44485 2.02009
157.827 -9.44572 2.03637
157.915 -9.45159 2.00936
157.923 -9.45213 2.037
157.941 -9.45334 2.03711
157.989 -9.45655 2.03742
157.995 -9.45695 2.03746
158.096 -9.46368 2.00586
158.182 -9.46937 2.00706
158.183 -9.46941 2.0256
158.274 -9.47541 2.01243
158.279 -9.47577 2.01214
158.434 -9.48595 2.02733
158.452 -9.48713 2.03458
158.574 -9.49511 2.01021
158.598 -9.49664 2.02104
158.616 -9.4978 2.03566
158.634 -9.49899 2.01567
158.875 -9.51453 2.03023
158.915 -9.51708 2.02329
159.122 -9.53027 2.03253
159.252 -9.53849 2.03978
159.406 -9.54816 2.04076
159.431 -9.54977 2.03404
159.672 -9.56473 2.01901
159.678 -9.56512 2.03567
159.742 -9.56906 2.02298
159.999 -9.58478 2.0445
160.025 -9.58637 2.04076
160.043 -9.58749 2.02793
160.064 -9.58875 2.02216
160.109 -9.5915 2.02561
160.141 -9.59341 2.04538
160.149 -9.59392 2.02239
160.183 -9.59593 2.03203
160.228 -9.59868 2.04257
160.386 -9.60814 2.0308
160.499 -9.6149 2.03415
160.544 -9.61756 2.02533
160.654 -9.62404 2.04195
160.684 -9.6258 2.04872
160.812 -9.63336 2.0495
160.894 -9.63813 2.04346
160.943 -9.64097 2.04881
161.095 -9.6498 2.05011
161.297 -9.66139 2.05241
161.411 -9.66784 2.05308
161.584 -9.67764 2.03579
161.592 -9.67809 2.05431
161.621 -9.6797 2.03418
161.687 -9.68341 2.05509
161.71 -9.68472 2.04152
161.764 -9.6877 2.04235
161.83 -9.69138 2.05553
161.839 -9.69191 2.04927
161.926 -9.6967 2.05609
161.942 -9.69758 2.0572
161.954 -9.69824 2.03825
161.974 -9.69936 2.05746
162.007 -9.70114 2.03703
162.028 -9.70234 2.044
162.071 -9.70468 2.05065
162.079 -9.70512 2.04433
162.127 -9.70773 2.03663
162.272 -9.71566 2.05808
162.349 -9.71981 2.05851
162.523 -9.72916 2.03934
162.616 -9.7341 2.06002
162.672 -9.73708 2.06033
162.853 -9.74664 2.06134
162.888 -9.74844 2.06153
162.976 -9.75308 2.05593
162.979 -9.75323 2.06204
162.991 -9.75383 2.0621
163.197 -9.76448 2.05719
163.239 -9.76666 2.05309
163.335 -9.77156 2.05192
163.439 -9.77685 2.04768
163.524 -9.78118 2.05515
163.532 -9.78159 2.04779
163.647 -9.78735 2.05373
163.811 -9.79553 2.04994
163.908 -9.80036 2.05032
164.049 -9.80729 2.0619
164.111 -9.81032 2.04965
164.255 -9.81728 2.06301
164.509 -9.82945 2.0521
164.583 -9.83297 2.06252
164.825 -9.84433 2.06415
164.886 -9.84715 2.06065
165.041 -9.85432 2.06712
165.192 -9.86124 2.06229
165.227 -9.86284 2.06808
165.303 -9.86628 2.05854
165.385 -9.86997 2.05974
165.677 -9.88296 2.06058
165.687 -9.88337 2.06974
165.746 -9.88599 2.06192
165.873 -9.89152 2.07091
165.929 -9.89395 2.07156
166.092 -9.90098 2.07234
166.098 -9.90124 2.06134
166.403 -9.91414 2.06847
166.487 -9.91764 2.07466
166.496 -9.91799 2.06351
166.606 -9.92254 2.07537
166.69 -9.92603 2.07516
166.701 -9.92648 2.06992
166.825 -9.93152 2.07578
166.927 -9.93563 2.07725
166.967 -9.93726 2.07749
167.148 -9.94446 2.0699
167.175 -9.94554 2.06828
167.299 -9.9504 2.07792
167.4 -9.95435 2.07836
167.485 -9.95766 2.07171
167.55 -9.96014 2.07009
167.729 -9.96698 2.0798
167.792 -9.96935 2.08006
167.869 -9.97225 2.07532
167.962 -9.97568 2.08078
167.983 -9.97647 2.08087
168.081 -9.9801 2.07158
168.154 -9.98278 2.07656
168.476 -9.9944 2.07345
168.771 -10.0047 2.07818
169.05 -10.0143 2.07681
169.073 -10.0151 2.07961
169.257 -10.0212 2.08113
169.425 -10.0267 2.07837
169.522 -10.0299 2.08217
170.05 -10.0466 2.0803
170.18 -10.0506 2.08451
170.427 -10.058 2.08554
170.44 -10.0584 2.08185
170.525 -10.0609 2.08587
170.76 -10.0676 2.08669
170.921 -10.0722 2.08407
171.265 -10.0817 2.08884
171.295 -10.0825 2.08536
171.432 -10.0862 2.08946
171.615 -10.091 2.08949
171.805 -10.0958 2.09008
171.893 -10.0981 2.09111
171.952 -10.0995 2.09132
171.985 -10.1004 2.0874
172.365 -10.1096 2.08862
172.445 -10.1115 2.09196
172.571 -10.1144 2.09231
172.78 -10.1191 2.08998
172.919 -10.1222 2.09326
172.964 -10.1232 2.09338
173.148 -10.1271 2.09099
173.847 -10.1412 2.09282
174.204 -10.1479 2.0937
174.601 -10.1548 2.09449
174.957 -10.1605 2.09523
175.535 -10.169 2.09653
175.831 -10.173 2.09706
176.321 -10.179 2.09758
176.638 -10.1824 2.09802
176.754 -10.1836 2.09848
176.888 -10.185 2.09866
177.689 -10.1917 2.0992
177.856 -10.1929 2.09935
